SPECTRUM - MS,
v18105cz1.raw,
FTMS + p EI Full ms [65.0000-600.0000],
Scan #: 2748,
RT: 17.13,
Data points: 5348,
Mass,Intensity
64.354039,0
64.354108,0
64.354177,0
64.354247,0
66.020307,0
66.020379,0
66.020451,0
66.020523,0
66.020595,154189.0938
66.020667,283256.1563
66.020739,337470.0938
66.020811,265044.3125
66.020883,114756.3984
66.020955,0
66.021027,0
66.021099,0
66.021171,0
66.033409,0
66.033481,0
66.033553,0
66.033625,0
66.033697,220444.6406
66.033769,442282.75
66.033841,584118.75
66.033913,552477.125
66.033986,380169.875
66.034058,184217.9219
66.034122,0
66.034194,0
66.034266,0
66.034338,0
67.041029,0
67.041102,0
67.041176,0
67.04125,0
67.041323,95521.82813
67.041397,268975.3125
67.041471,485977.875
67.041544,628626
67.041618,612974.0625
67.041692,448788.125
67.041765,233928.4531
67.041878,0
67.041951,0
67.042025,0
67.042099,0
69.973783,0
69.973861,0
69.97394,0
69.974019,0
69.974097,196231.7656
69.974176,282090.9063
69.974254,344192.4688
69.974333,369949.625
69.974411,332705
69.97449,229293.4844
69.974568,0
69.974647,0
69.974725,0
69.974804,0
70.022741,0
70.022819,0
70.022898,0
70.022977,0
70.023055,88062.95313
70.023134,252173.6094
70.023213,406674.1875
70.023291,464171.9375
70.02337,393986.4375
70.023448,239092.8281
70.023517,0
70.023596,0
70.023674,0
70.023753,0
71.620429,0
71.62051,0
71.620591,0
71.620673,0
71.620754,140996.6406
71.620835,253287.2188
71.620917,304449.7188
71.620998,247470.2031
71.621079,123146.7266
71.621158,0
71.62124,0
71.621321,0
71.621402,0
71.989468,0
71.98955,0
71.989632,0
71.989714,0
71.989796,134700.3281
71.989878,267106.7813
71.98996,376145.2813
71.990042,399283.7813
71.990124,321730.3438
71.990206,195646.2344
71.990286,0
71.990368,0
71.99045,0
71.990532,0
72.038259,0
72.038341,0
72.038423,0
72.038505,0
72.038587,125303.6406
72.038669,423835.5313
72.038751,1242741.75
72.038833,2221197.5
72.038915,3103611.75
72.038997,2710938.25
72.039079,1670085.75
72.039161,713811.5625
72.039243,209055.3125
72.039325,0
72.039407,0
72.039489,0
72.039571,0
72.264743,0
72.264825,0
72.264908,0
72.26499,0
72.265072,130793.9531
72.265155,249558.5313
72.265237,303460.7813
72.26532,246091.6719
72.265402,120359.4688
72.265523,0
72.265605,0
72.265688,0
72.26577,0
72.465756,0
72.465839,0
72.465922,0
72.466005,0
72.466088,122864.8203
72.46617,235967.5313
72.466253,296933.4375
72.466336,268348.9375
72.466419,178926.2031
72.466599,0
72.466681,0
72.466764,0
72.466847,0
73.034625,0
73.034709,0
73.034792,0
73.034876,0
73.03496,68958.23438
73.035044,739882.875
73.035127,1243541.875
73.035211,2438467.5
73.035295,4169291.25
73.035379,5916583.5
73.035462,5548354
73.035546,3292981
73.03563,1168786
73.035714,0
73.035724,0
73.035781,0
73.035864,0
73.035948,0
73.042314,0
73.042398,0
73.042481,0
73.042565,0
73.042649,0
73.042733,0
73.042817,0
73.0429,0
73.042984,0
73.043068,0
73.043152,0
73.043235,0
73.043319,0
73.043403,0
73.043989,0
73.044073,0
73.044157,0
73.044241,0
73.044324,0
73.044408,0
73.044492,0
73.044576,0
73.044659,0
73.044743,0
73.044827,0
73.044911,0
73.044995,0
73.045078,0
73.045162,0
73.045246,0
73.04533,0
73.045413,0
73.045505,0
73.045589,0
73.045672,0
73.045756,0
73.045924,0
73.046007,0
73.046091,0
73.046175,0
73.046259,0
73.046342,2431533.5
73.046426,10180031
73.04651,32748472
73.046594,103518280
73.046678,265053248
73.046761,440260608
73.046845,540377856
73.046929,404781920
73.047013,232625712
73.047096,75360088
73.04718,18335790
73.047264,3855606.5
73.047348,1898153.625
73.047432,0
73.047508,0
73.047591,0
73.047675,0
73.047759,0
73.047843,0
73.047927,0
73.04801,0
73.048094,0
73.048178,0
73.048262,0
73.048345,0
73.048429,0
73.048513,0
73.048597,0
73.048681,0
73.048764,0
73.048848,0
73.048932,0
73.049016,0
73.049099,0
73.049183,0
73.049267,0
73.049351,0
73.049435,0
73.049518,0
73.049937,0
73.050021,0
73.050105,0
73.050189,0
73.050272,0
73.050356,0
73.05044,0
73.050524,0
73.050607,0
73.050691,0
73.050775,0
73.050859,0
73.050943,0
73.051026,0
73.05111,0
73.051194,0
73.051278,0
73.051361,0
73.051445,0
73.051529,0
73.051613,0
73.051697,0
73.05178,0
73.051864,0
73.051948,0
73.052032,0
73.052116,0
73.052199,0
73.052283,0
73.052367,0
73.052451,0
73.052534,0
73.057394,0
73.057478,0
73.057562,0
73.057645,0
73.057729,79794.25781
73.057813,1721459
73.057897,2739425
73.057981,3896059.5
73.058064,3800605.25
73.058148,2006349.375
73.058232,168960.4063
73.058316,0
73.0584,0
73.058483,0
73.058567,1179476.5
73.058651,1882968.375
73.058735,1545186.75
73.058819,260268.2031
73.058902,0
73.058984,0
73.059068,0
73.059152,0
73.059236,0
73.357704,0
73.357788,0
73.357873,0
73.357957,0
73.358041,108601.2422
73.358126,237001.625
73.35821,304227.7188
73.358294,259558.6563
73.358379,145286.3281
73.358459,0
73.358543,0
73.358628,0
73.358712,0
74.017624,0
74.01771,0
74.017795,0
74.017881,0
74.017966,169101.4063
74.018051,435485.1563
74.018137,730477.5625
74.018222,1242987
74.018308,861176.0625
74.018393,418112.875
74.018479,173933.4531
74.018564,0
74.018649,0
74.018735,0
74.01882,0
74.041299,0
74.041385,0
74.04147,0
74.041556,0
74.041641,100440.9766
74.041727,254404.875
74.041812,759300.5625
74.041898,1352028.875
74.041983,1897534.875
74.042069,1725512.25
74.042154,1078058.75
74.04224,446665.5313
74.042325,65148.60938
74.042405,0
74.04249,0
74.042576,0
74.042661,0
74.045483,0
74.045568,0
74.045654,0
74.045739,0
74.045825,91423.80469
74.04591,350787.8438
74.045996,1590879.5
74.046081,5899018.5
74.046167,14308147
74.046252,23373694
74.046338,27027710
74.046423,19401902
74.046509,10797692
74.046594,3663323.75
74.04668,1221912.875
74.046765,545208.9375
74.046851,132560.9688
74.046942,0
74.047027,0
74.047113,0
74.047198,0
74.047284,0
74.047369,0
74.047448,0
74.047534,0
74.047619,0
74.047705,0
74.04933,0
74.049415,0
74.049501,0
74.049586,0
74.049672,0
74.049757,771864.0625
74.049843,3435308
74.049928,10053405
74.050014,17069704
74.050099,21950158
74.050185,17247774
74.05027,10257818
74.050356,3753841.25
74.050441,1098778
74.050527,249880.4531
74.050612,13340.58594
74.050704,0
74.05079,0
74.050875,0
74.050961,0
74.0525,0
74.052585,0
74.052671,0
74.052756,0
74.052842,124340.7734
74.052927,242226.6406
74.053013,318540.0938
74.053098,289610.1875
74.053184,172326.5313
74.053266,0
74.053351,0
74.053437,0
74.053522,0
74.709706,0
74.709793,0
74.70988,0
74.709966,0
74.710053,126605.3047
74.710139,233569.8125
74.710226,281929.5625
74.710313,239385.7656
74.710399,130149.4844
74.710525,0
74.710612,0
74.710698,0
74.710785,0
75.013513,0
75.0136,0
75.013687,0
75.013774,0
75.013862,105546.0391
75.013949,251581.1563
75.014036,346829.3438
75.014123,322199.7813
75.01421,213452.0156
75.014292,0
75.01438,0
75.014467,0
75.014554,0
75.025104,0
75.025191,0
75.025278,0
75.025366,0
75.025453,0
75.02554,235938
75.025627,580116.0625
75.025714,2704183.5
75.025802,10178968
75.025889,25741422
75.025976,42515180
75.026063,50637224
75.02615,37148872
75.026238,21081520
75.026325,7228620
75.026412,2342240.25
75.026499,879561
75.026586,103474.3359
75.026669,0
75.026757,0
75.026844,0
75.026931,0
75.042805,0
75.042892,0
75.042979,0
75.043066,0
75.043153,0
75.043241,391106.9063
75.043328,2325412
75.043415,7749883
75.043502,14106638
75.04359,19790306
75.043677,17160250
75.043764,10627854
75.043851,4613147.5
75.043939,1619371.75
75.044026,701039.9375
75.044113,312487.3438
75.044209,442684.0625
75.044297,131214.3438
75.044384,0
75.044471,0
75.044558,0
75.044645,0
75.049007,0
75.049095,0
75.049182,0
75.049269,0
75.049356,77143.96094
75.049444,263610.5938
75.049531,555709.9375
75.049618,1222257.25
75.049705,1322319.5
75.049793,667339.3125
75.04988,391195.625
75.049967,163567.5
75.050049,0
75.050136,0
75.050224,0
75.050311,0
76.015097,0
76.015186,0
76.015275,0
76.015364,0
76.015453,193364.75
76.015541,317730.5313
76.01563,357905.625
76.015719,284140.1563
76.015808,152583
76.015897,0
76.015986,0
76.016075,0
76.016164,0
76.02488,0
76.024969,0
76.025058,0
76.025147,0
76.025236,98201.57031
76.025325,289509.0938
76.025414,920424.6875
76.025503,1574049.625
76.025592,2098241
76.025681,1787412.5
76.02577,1099678.875
76.025859,463506.25
76.025948,116490.5625
76.026037,0
76.026125,0
76.026214,0
76.026303,0
76.028794,0
76.028883,0
76.028972,0
76.029061,0
76.02915,206367.4063
76.029239,422578.4063
76.029328,598861
76.029417,630307.9375
76.029506,498080.5
76.029595,282416.4375
76.029684,100553.2422
76.029773,0
76.029861,0
76.02995,0
76.030039,0
76.04641,0
76.046499,0
76.046588,0
76.046677,0
76.046766,215876.1719
76.046855,339735.0625
76.046944,389948.9688
76.047033,319347.9063
76.047122,169057.1719
76.047206,0
76.047295,0
76.047384,0
76.047473,0
77.004586,0
77.004676,0
77.004767,0
77.004858,0
77.004948,161976.5469
77.005039,412336.6563
77.00513,1020971.375
77.00522,1691680.375
77.005311,1864685.375
77.005402,1277987.875
77.005492,665265.0625
77.005583,167696.9844
77.005674,0
77.005764,0
77.005855,0
77.005946,0
77.022179,0
77.02227,0
77.022361,0
77.022451,0
77.022542,184968.1563
77.022633,543569.625
77.022723,1153975
77.022814,1774538.625
77.022905,1722571.625
77.022996,1103978.5
77.023086,531679.0625
77.023177,166642.8125
77.023268,0
77.023358,0
77.023449,0
77.02354,0
77.037964,0
77.038055,0
77.038146,0
77.038236,0
77.038327,177305.375
77.038418,323635.1875
77.038509,416661.7188
77.038599,408257.9688
77.03869,303185.3438
77.038781,157354.0313
77.038906,0
77.038997,0
77.039088,0
77.039179,0
78.516101,0
78.516194,0
78.516287,0
78.516381,0
78.516474,148722.75
78.516568,263990.125
78.516661,302241.7188
78.516754,240966.8125
78.516848,127698.2891
78.516938,0
78.517032,0
78.517125,0
78.517218,0
79.053682,0
79.053776,0
79.053871,0
79.053965,0
79.054059,162521.5625
79.054154,343260.0625
79.054248,437518
79.054342,377188.75
79.054436,216395.0313
79.054528,0
79.054622,0
79.054716,0
79.054811,0
79.700866,0
79.700962,0
79.701057,0
79.701153,0
79.701248,183842.7344
79.701344,308905.8438
79.701439,349412.375
79.701535,285998.2188
79.70163,166649.5313
79.701724,0
79.70182,0
79.701915,0
79.702011,0
80.048678,0
80.048774,0
80.04887,0
80.048966,0
80.049062,157661.3281
80.049158,388630.7188
80.049254,919763.125
80.04935,1478916.75
80.049446,1641246.375
80.049542,1200332.375
80.049639,450240.375
80.049735,168650.1719
80.04987,0
80.049966,0
80.050062,0
80.050158,0
81.044017,0
81.044115,0
81.044213,0
81.044311,0
81.044408,107158.1328
81.044506,248685.8906
81.044604,362882.1563
81.044702,369405.1563
81.0448,265400.4688
81.044898,122914.7656
81.044995,0
81.045093,0
81.045191,0
81.045289,0
81.292471,0
81.292569,0
81.292668,0
81.292766,0
81.292864,131802.3906
81.292963,257431.4219
81.293061,355153.5
81.293159,373083.9375
81.293258,301556.5
81.293356,178540.1875
81.293451,0
81.29355,0
81.293648,0
81.293747,0
82.009936,0
82.010036,0
82.010135,0
82.010235,0
82.010335,103810.4453
82.010434,320360.375
82.010534,955913.5
82.010634,1503725.125
82.010733,1672765
82.010833,1167829.625
82.010933,615157.625
82.011032,107343.6328
82.011132,0
82.011231,0
82.011331,0
82.011431,0
82.051708,0
82.051808,0
82.051907,0
82.052007,0
82.052107,108069.5781
82.052207,292421.25
82.052306,743777.0625
82.052406,1255937.625
82.052506,1449723.75
82.052605,1044281.875
82.052705,378851.2188
82.052805,117333.2344
82.052901,0
82.053,0
82.0531,0
82.0532,0
82.999518,0
82.999619,0
82.999721,0
82.999822,0
82.999924,206455.7969
83.000025,330063.9063
83.000126,401203.5
83.000228,362792.5625
83.000329,234136.3281
83.000431,0
83.000532,0
83.000634,0
83.000735,0
83.030372,0
83.030473,0
83.030575,0
83.030676,0
83.030778,138706.2813
83.030879,341220.5313
83.030981,568041.375
83.031082,672181.25
83.031184,579412.0625
83.031285,356864.3438
83.031387,143050.25
83.031488,0
83.03159,0
83.031691,0
83.031793,0
83.035854,0
83.035956,0
83.036057,0
83.036159,0
83.03626,134630.3906
83.036362,300500.0625
83.036463,434417.25
83.036565,450264.3125
83.036666,338836.3125
83.036768,172738.9063
83.036869,0
83.036971,0
83.037072,0
83.037174,0
83.045805,0
83.045907,0
83.046008,0
83.04611,0
83.046211,125799.5938
83.046313,262829.0625
83.046414,342361.0313
83.046516,305710.1563
83.046618,186010.3281
83.046716,0
83.046817,0
83.046919,0
83.04702,0
83.05931,0
83.059411,0
83.059513,0
83.059614,0
83.059716,0
83.059818,403015.8438
83.059919,2962857.25
83.060021,11617602
83.060122,33626928
83.060224,57040668
83.060325,73112176
83.060427,56909784
83.060529,33622136
83.06063,11879227
83.060732,3434966.25
83.060833,815962.8125
83.060935,117338.0703
83.06104,0
83.061141,0
83.061243,0
83.061344,0
83.073332,0
83.073434,0
83.073535,0
83.073637,0
83.073738,134633.625
83.07384,300774.9688
83.073942,426508.9375
83.074043,412839.4063
83.074145,273510.9688
83.074246,146116.8906
83.074348,152299.7031
83.07445,269763.0938
83.074551,368561.2188
83.074653,352686.6563
83.074754,235666.2188
83.074906,0
83.075008,0
83.07511,0
83.075211,0
84.025464,0
84.025567,0
84.025671,0
84.025774,0
84.025877,24696.58008
84.025981,248730.0156
84.026084,853406.0625
84.026187,2055295.625
84.026291,3355638.25
84.026394,4053115
84.026497,3044612.25
84.026601,1755212.125
84.026704,576014.25
84.026807,70814.60938
84.026905,0
84.027008,0
84.027111,0
84.027215,0
84.043444,0
84.043547,0
84.043651,0
84.043754,0
84.043858,0
84.043961,437221.625
84.044064,1795269.375
84.044168,4807184
84.044271,8045564
84.044374,9969084
84.044478,7574694
84.044581,4423918
84.044685,1491131.125
84.044788,360147.4688
84.044891,36177.33203
84.044992,0
84.045096,0
84.045199,0
84.045302,0
84.056676,0
84.05678,0
84.056883,0
84.056987,0
84.05709,98371.82813
84.057193,240716.9844
84.057297,391520.3125
84.0574,468289.1563
84.057504,423706.5
84.057607,285887.0313
84.057711,133809.9375
84.057821,0
84.057925,0
84.058028,0
84.058131,0
84.062889,0
84.062992,0
84.063095,0
84.063199,0
84.063302,165140.8281
84.063406,429537.0938
84.063509,1217269.125
84.063613,2064761.125
84.063716,2591797.5
84.063819,1974833.375
84.063923,1131996
84.064026,359045.625
84.06413,154605.0156
84.064225,0
84.064329,0
84.064432,0
84.064536,0
84.227978,0
84.228081,0
84.228185,0
84.228289,0
84.228393,210498.8906
84.228496,309188.2813
84.2286,344089.875
84.228704,277766.9375
84.228808,143069.9219
84.22891,0
84.229014,0
84.229118,0
84.229222,0
84.493104,0
84.493208,0
84.493312,0
84.493416,0
84.493521,169782.9219
84.493625,302322.625
84.493729,362765.2188
84.493833,307429.2188
84.493938,173774.1094
84.494024,0
84.494128,0
84.494233,0
84.494337,0
85.033317,0
85.033422,0
85.033527,0
85.033633,0
85.033738,101283.2813
85.033843,608080.25
85.033948,1522192.625
85.034054,2492588.75
85.034159,2974520.5
85.034264,2260611.75
85.034369,1341390.875
85.034474,507612.6875
85.03458,105362.7969
85.0347,0
85.034806,0
85.034911,0
85.035016,0
85.04596,0
85.046065,0
85.046171,0
85.046276,0
85.046381,83550.60938
85.046486,253254.125
85.046591,800955.0625
85.046697,1291796
85.046802,1529614
85.046907,1118113.5
85.047012,468904.0313
85.047118,184785.375
85.047223,0
85.047328,0
85.047433,0
85.047538,0
85.100501,0
85.100606,0
85.100712,0
85.100817,0
85.100922,130712.6719
85.101028,294114.625
85.101133,388253.3438
85.101238,335978.875
85.101344,188311.375
85.101449,0
85.101554,0
85.101659,0
85.101765,0
85.192328,0
85.192434,0
85.192539,0
85.192645,0
85.19275,161913.625
85.192856,238206.875
85.192961,270235.4688
85.193067,237729.9375
85.193172,155328.2031
85.193278,0
85.193383,0
85.193489,0
85.193594,0
85.21069,0
85.210796,0
85.210901,0
85.211007,0
85.211113,120920.375
85.211218,237557.8438
85.211324,314549.4375
85.211429,298265.0938
85.211535,198806.5625
85.211639,0
85.211745,0
85.21185,0
85.211956,0
85.547748,0
85.547854,0
85.54796,0
85.548066,0
85.548173,136693.6563
85.548279,259602.6719
85.548385,325572.4688
85.548491,292197.2188
85.548597,185666.4844
85.548702,0
85.548808,0
85.548914,0
85.54902,0
86.004844,0
86.004951,0
86.005058,0
86.005165,0
86.005272,110380.4219
86.005379,288693.625
86.005486,490116.875
86.005593,607299.375
86.0057,570694.375
86.005807,403062.6563
86.005914,200560.7656
86.006025,0
86.006132,0
86.006239,0
86.006346,0
86.053673,0
86.05378,0
86.053887,0
86.053994,0
86.054101,3747.575684
86.054208,520451.4063
86.054315,1777570.75
86.054423,3355803.75
86.05453,4922863.5
86.054637,4638294
86.054744,2959778
86.054851,1391613.625
86.054958,418269.25
86.055065,113851.1875
86.055212,0
86.055319,0
86.055427,0
86.055534,0
86.970942,0
86.97105,0
86.971159,0
86.971268,0
86.971377,159879.5938
86.971486,412163.3125
86.971595,689888.5
86.971703,807244.25
86.971812,685421.0625
86.971921,421504.25
86.97203,179670.4219
86.972139,0
86.972247,0
86.972356,0
86.972465,0
87.061671,0
87.06178,0
87.061889,0
87.061998,0
87.062107,151489.0156
87.062216,327414.1563
87.062325,481105.9688
87.062434,509705.4375
87.062543,390494.1563
87.062652,203439
87.062755,0
87.062864,0
87.062973,0
87.063082,0
89.067007,0
89.06712,0
89.067233,0
89.067346,0
89.067458,79616.76563
89.067571,242339.1719
89.067684,469923.7813
89.067797,626699.25
89.06791,592099.25
89.068022,381945.9688
89.068135,147062.4219
89.068248,0
89.068361,0
89.068473,0
89.068586,0
89.104466,0
89.104579,0
89.104692,0
89.104805,0
89.104918,148311.75
89.10503,261002.0156
89.105143,314357.125
89.105256,263605.7188
89.105369,139939.7813
89.105482,0
89.105594,0
89.105707,0
89.10582,0
89.224561,0
89.224674,0
89.224787,0
89.2249,0
89.225013,191042.6719
89.225127,313299.6875
89.22524,365059.9688
89.225353,310663.5625
89.225466,184555.4844
89.225579,0
89.225692,0
89.225805,0
89.225918,0
89.251257,0
89.25137,0
89.251483,0
89.251596,0
89.251709,196799.6406
89.251822,300603.1875
89.251936,330273.1563
89.252049,258402.9531
89.252162,130521.5703
89.252275,0
89.252388,0
89.252501,0
89.252614,0
89.256801,0
89.256914,0
89.257027,0
89.25714,0
89.257254,129226.9219
89.257367,260041.2188
89.25748,313472.2813
89.257593,246539.7188
89.257706,114507.3516
89.257819,0
89.257932,0
89.258046,0
89.258159,0
89.282492,0
89.282605,0
89.282719,0
89.282832,0
89.282945,175865.7031
89.283058,258214.8125
89.283171,293224.25
89.283285,251081.8906
89.283398,149270.7031
89.283511,0
89.283624,0
89.283737,0
89.283851,0
89.311592,0
89.311705,0
89.311819,0
89.311932,0
89.312045,118227.4141
89.312158,253516.0781
89.312272,314298.3438
89.312385,253601.2813
89.312498,128143.0234
89.312611,0
89.312725,0
89.312838,0
89.312951,0
89.322126,0
89.322239,0
89.322353,0
89.322466,0
89.322579,226065.5938
89.322692,299597.7813
89.322806,313044.9688
89.322919,258140.25
89.323032,158841.2813
89.32319,0
89.323303,0
89.323416,0
89.32353,0
91.05358,0
91.053697,0
91.053813,0
91.05393,0
91.054046,165927.2188
91.054163,306343.3125
91.05428,358970.1563
91.054396,274330.625
91.054513,115636.6484
91.054637,0
91.054754,0
91.05487,0
91.054987,0
91.056386,0
91.056503,0
91.056619,0
91.056736,0
91.056853,121783.0234
91.056969,786824.5625
91.057086,2448222.75
91.057202,4551499
91.057319,6627343.5
91.057436,6240829.5
91.057552,4005665
91.057669,1908469.5
91.057785,524031.9063
91.057902,52781.93359
91.058056,0
91.058173,0
91.058289,0
91.058406,0
93.035797,0
93.035917,0
93.036038,0
93.036158,0
93.036278,171822.0938
93.036399,320693.5938
93.036519,404564.9375
93.03664,359203.8438
93.03676,214789.9063
93.036879,0
93.037,0
93.03712,0
93.037241,0
93.539479,0
93.539601,0
93.539722,0
93.539843,0
93.539965,165488.1875
93.540086,264630.5625
93.540208,291274.5313
93.540329,233736.1719
93.54045,138536.1406
93.540603,0
93.540724,0
93.540846,0
93.540967,0
93.541089,0
93.54121,0
93.541331,153843.2188
93.541453,307944.25
93.541574,1058176.125
93.541696,2092872.375
93.541817,3173252.25
93.541938,3173173
93.54206,2064888.25
93.542181,993305.9375
93.542303,220233.1094
93.542393,0
93.542514,0
93.542635,0
93.542757,0
93.600935,0
93.601056,0
93.601178,0
93.601299,0
93.601421,176540.4844
93.601542,303360.75
93.601664,336900.375
93.601785,253980
93.601907,121654.7266
93.602028,0
93.60215,0
93.602271,0
93.602393,0
93.635697,0
93.635819,0
93.63594,0
93.636062,0
93.636184,120698.7656
93.636305,221420.0469
93.636427,266848.2813
93.636548,231172.3906
93.63667,136337.8438
93.636791,0
93.636913,0
93.637035,0
93.637156,0
93.641047,0
93.641169,0
93.64129,0
93.641412,0
93.641533,88446.40625
93.641655,225172.3125
93.641777,338050.9688
93.641898,355239.9688
93.64202,267139.8438
93.642141,136825.7031
93.642263,0
93.642384,0
93.642506,0
93.642628,0
93.652234,0
93.652356,0
93.652478,0
93.652599,0
93.652721,137531.9531
93.652842,248039.9844
93.652964,283537.2813
93.653086,222997.1719
93.653207,111590.9453
93.653329,0
93.65345,0
93.653572,0
93.653694,0
93.689824,0
93.689946,0
93.690068,0
93.690189,0
93.690311,115397.9453
93.690433,233478.4531
93.690554,331466.25
93.690676,342297.8438
93.690798,243326.3125
93.690919,95193.25781
93.691041,0
93.691163,0
93.691284,0
93.691406,0
93.701385,0
93.701507,0
93.701629,0
93.701751,0
93.701872,202390.1406
93.701994,284204.6563
93.702116,299658.875
93.702237,238101.6406
93.702359,131476.875
93.702481,0
93.702603,0
93.702724,0
93.702846,0
93.72354,0
93.723662,0
93.723784,0
93.723906,0
93.724027,172478.5156
93.724149,361471.3125
93.724271,501913.5625
93.724393,504206.6563
93.724514,369571.375
93.724636,190676.5
93.724758,0
93.72488,0
93.725001,0
93.725123,0
93.762391,0
93.762513,0
93.762635,0
93.762757,0
93.762879,199397.5469
93.763001,286712.75
93.763122,298976.6563
93.763244,234600.3906
93.763366,130444.1875
93.763488,0
93.76361,0
93.763732,0
93.763853,151488.9531
93.763975,284451.75
93.764097,356443.0313
93.764219,312903.9375
93.764341,183935.9844
93.764462,0
93.764584,0
93.764706,0
93.764828,0
94.033068,0
94.033191,0
94.033313,0
94.033435,0
94.033558,190020.9531
94.03368,343875.6563
94.033803,397788.375
94.033925,310552.125
94.034047,155164.7969
94.03417,0
94.034292,0
94.034414,0
94.034537,0
94.042858,0
94.04298,0
94.043102,0
94.043225,0
94.043347,112980.6719
94.043469,259782.5469
94.043592,364634.7188
94.043714,368585.5625
94.043837,283884.0938
94.043959,168492
94.04408,0
94.044202,0
94.044324,0
94.044447,0
94.864938,0
94.865062,0
94.865186,0
94.86531,0
94.865434,188756.0781
94.865558,282949.4063
94.865682,303794.4688
94.865806,242344.5156
94.86593,134087.0469
94.866052,0
94.866176,0
94.8663,0
94.866424,0
96.02542,0
96.025546,0
96.025673,0
96.025799,0
96.025925,70867.36719
96.026051,243119.0469
96.026178,511028.75
96.026304,738746.4375
96.02643,772533.8125
96.026557,583657.3125
96.026683,300748.0938
96.026809,90025.86719
96.026986,0
96.027112,0
96.027239,0
96.027365,0
97.033485,0
97.033613,0
97.033741,0
97.03387,0
97.033998,135836.7344
97.034126,267539.8125
97.034254,318554.6875
97.034383,254146.4844
97.034511,128903.7656
97.034638,0
97.034766,0
97.034894,0
97.035023,0
98.008351,0
98.008481,0
98.008611,0
98.008742,0
98.008872,107588.2188
98.009002,221852.2031
98.009132,273455.2813
98.009262,224233.7031
98.009393,116570.3516
98.009523,0
98.009653,0
98.009783,0
98.009913,0
98.041038,0
98.041169,0
98.041299,0
98.041429,0
98.041559,123247.0547
98.04169,426485.2813
98.04182,1061050.75
98.04195,1745626.5
98.042081,2119536.5
98.042211,1643049.875
98.042341,959354.125
98.042471,323504.4688
98.042602,126242.6172
98.042732,0
98.042862,0
98.042992,0
98.043123,0
98.053805,0
98.053936,0
98.054066,0
98.054196,0
98.054326,218809.1094
98.054457,378058.0625
98.054587,460843
98.054717,405550.75
98.054848,245552.6406
98.054978,81728.24219
98.055108,0
98.055238,0
98.055368,0
98.055499,0
98.403253,0
98.403384,0
98.403515,0
98.403646,0
98.403777,163351.2813
98.403908,295390.2188
98.404039,357434
98.40417,295548.1563
98.404301,151369.125
98.404432,0
98.404563,0
98.404694,0
98.404825,0
98.462223,0
98.462354,0
98.462485,0
98.462616,0
98.462747,154448.3438
98.462878,291287.7813
98.463009,365304.5313
98.46314,319884.0938
98.463271,187106
98.463402,0
98.463533,0
98.463664,0
98.463795,0
99.025084,0
99.025216,0
99.025348,0
99.02548,0
99.025613,226894.5313
99.025745,720153.875
99.025877,1304703.375
99.026009,1863834.75
99.026141,1753536
99.026274,1139626.25
99.026406,548801
99.026538,154694.0156
99.02667,0
99.026802,0
99.026934,0
99.027066,0
99.522805,0
99.522938,0
99.523071,0
99.523204,0
99.523337,132088.5781
99.523471,295820.5313
99.523604,404367.4063
99.523737,377345.125
99.52387,237429.1406
99.524007,0
99.52414,0
99.524274,0
99.524407,0
100.020131,0
100.020265,0
100.020399,0
100.020533,0
100.020667,0
100.020802,288856.3125
100.020936,1213960.375
100.02107,2807228.25
100.021204,4541207
100.021339,5216957
100.021473,3787892.5
100.021607,2170657.5
100.021741,736264.625
100.021876,171408.3438
100.022005,0
100.02214,0
100.022274,0
100.022408,0
100.056646,0
100.05678,0
100.056914,0
100.057048,0
100.057183,127430.6172
100.057317,301286.9688
100.057451,516312.0625
100.057586,664089.0625
100.05772,642520.3125
100.057854,454817.2188
100.057989,218161
100.058154,0
100.058288,0
100.058422,0
100.058557,0
100.986548,0
100.986684,0
100.986821,0
100.986957,0
100.987093,241341.4219
100.987229,418993.8125
100.987365,464975.0625
100.987502,348878.7188
100.987638,164474.4688
100.987774,0
100.98791,0
100.988046,0
100.988182,0
101.020056,0
101.020192,0
101.020328,0
101.020464,0
101.020601,244819.8438
101.020737,440560.125
101.020873,530873.9375
101.021009,441105.6563
101.021146,238372.2969
101.021281,0
101.021417,0
101.021553,0
101.02169,0
102.036129,0
102.036267,0
102.036406,0
102.036544,0
102.036682,256052.3594
102.03682,386469.6875
102.036959,425070.0313
102.037097,344069.0938
102.037235,192323.8281
102.037374,0
102.037512,0
102.03765,0
102.037789,0
102.072513,0
102.072651,0
102.072789,0
102.072928,0
102.073066,192398.75
102.073204,306800.75
102.073343,359783.4375
102.073481,308964.0625
102.07362,179235.6563
102.073769,0
102.073908,0
102.074046,0
102.074184,0
102.546034,0
102.546173,0
102.546313,0
102.546452,0
102.546591,139997.2188
102.546731,319102.1875
102.54687,1039897.063
102.547009,1855077.75
102.547149,2523024
102.547288,2080806.875
102.547427,1226977
102.547567,437785.7188
102.547706,70314.03906
102.54781,0
102.547949,0
102.548089,0
102.548228,0
103.001908,0
103.002048,0
103.002188,0
103.002328,0
103.002469,259525.8906
103.002609,891341.625
103.002749,1622733.125
103.002889,2285861.5
103.00303,2086518.75
103.00317,1347544.75
103.00331,659407.5625
103.003451,188573.8281
103.003633,0
103.003774,0
103.003914,0
103.004054,0
103.019907,0
103.020048,0
103.020188,0
103.020328,0
103.020469,172759.3594
103.020609,618683.0625
103.020749,1488874
103.02089,2437806.5
103.02103,2966780.75
103.02117,2275566.25
103.02131,1332137.625
103.021451,458946.5313
103.021591,40117.14844
103.021743,0
103.021883,0
103.022024,0
103.022164,0
105.017751,0
105.017896,0
105.01804,0
105.018185,0
105.018329,240603.4219
105.018473,439055.7188
105.018618,548678.5
105.018762,495974.3125
105.018907,323390.6563
105.019051,145374.6563
105.019195,0
105.01934,0
105.019484,0
105.019628,0
105.211094,0
105.211239,0
105.211384,0
105.211528,0
105.211673,170942.5469
105.211818,297824.1563
105.211963,372429.875
105.212108,340070.7813
105.212253,221449.1406
105.212397,0
105.212541,0
105.212686,0
105.212831,0
106.208332,0
106.208479,0
106.208626,0
106.208772,0
106.208919,224636.8125
106.209066,334990.75
106.209213,359097.3438
106.20936,278608.2813
106.209507,146254.6563
106.209664,0
106.209811,0
106.209958,0
106.210105,0
107.53815,0
107.5383,0
107.53845,0
107.538599,0
107.538749,141650.1563
107.538899,608738.375
107.539048,1572425.875
107.539198,2609594.25
107.539348,3164273.5
107.539497,2358557.75
107.539647,1350266.875
107.539797,412246.75
107.539946,53995.63281
107.540118,0
107.540268,0
107.540417,0
107.540567,0
108.967408,0
108.967561,0
108.967713,0
108.967866,0
108.968018,180633.7031
108.968171,327208.0938
108.968324,398947.9375
108.968476,343888.625
108.968629,201341.4063
108.968723,0
108.968876,0
108.969029,0
108.969181,0
110.040746,0
110.040901,0
110.041056,0
110.041211,0
110.041366,0
110.041521,715706.0625
110.041676,2300267
110.041831,3959829.25
110.041985,5086894
110.04214,4062367.75
110.042295,2470653.75
110.04245,1026909.313
110.042605,341652.9063
110.04276,194524.6719
110.042972,0
110.043127,0
110.043282,0
110.043437,0
111.025047,0
111.025204,0
111.025361,0
111.025518,0
111.025675,138408.6563
111.025832,307636.5313
111.025989,434029.4375
111.026146,442811
111.026303,339416.7813
111.02646,192136.6563
111.026617,0
111.026774,0
111.026931,0
111.027088,0
111.048911,0
111.049068,0
111.049225,0
111.049382,0
111.049539,182547.375
111.049696,347998.75
111.049854,448859.4063
111.050011,406825.8438
111.050168,251337.0781
111.050324,0
111.050481,0
111.050638,0
111.050795,0
112.020168,0
112.020327,0
112.020486,0
112.020645,0
112.020805,96620.9375
112.020964,294136.0625
112.021123,521806.7813
112.021282,649699.1875
112.021441,591481.625
112.0216,385871.0625
112.021759,174956.375
112.021913,0
112.022072,0
112.022231,0
112.02239,0
112.056126,0
112.056286,0
112.056445,0
112.056604,0
112.056763,87620.94531
112.056922,436855.4688
112.057081,2126885.25
112.057241,7623734.5
112.0574,17292102
112.057559,27772800
112.057718,31045486
112.057877,21806030
112.058036,11925344
112.058196,3867805.5
112.058355,1076971.5
112.058514,289349.3438
112.058673,0
112.058837,0
112.058996,0
112.059155,0
112.059315,0
113.022763,0
113.022924,0
113.023085,0
113.023246,0
113.023408,212867.2969
113.023569,477929.4375
113.02373,654483.3125
113.023891,615329.3125
113.024053,404145.3125
113.024214,174933.3125
113.024375,0
113.024536,0
113.024697,0
113.024859,0
113.0405,0
113.040662,0
113.040823,0
113.040984,0
113.041145,207410.0313
113.041307,487990.4688
113.041468,1085154.625
113.041629,1473761.375
113.04179,1197183
113.041952,680226.125
113.042113,254992.75
113.042274,0
113.042436,0
113.042597,0
113.042758,0
113.055984,0
113.056145,0
113.056306,0
113.056468,0
113.056629,119203.9219
113.05679,340858.8438
113.056952,900234.4375
113.057113,1405041.875
113.057274,1455244.375
113.057436,993175.8125
113.057597,357301.3125
113.057758,126784.625
113.05792,0
113.058081,0
113.058242,0
113.058403,0
113.059855,0
113.060017,0
113.060178,0
113.060339,0
113.0605,131368.4688
113.060662,377212.4063
113.060823,689131.8125
113.060984,1248916.125
113.061146,1008640.688
113.061307,488214.2813
113.061468,216017.0469
113.06163,0
113.061791,0
113.061952,0
113.062114,0
113.069857,0
113.070019,0
113.07018,0
113.070341,0
113.070503,99500.08594
113.070664,282339.0938
113.070825,453735.8125
113.070987,500498.2813
113.071148,393005.2188
113.071309,210063.5
113.071512,0
113.071673,0
113.071835,0
113.071996,0
114.035488,0
114.035651,0
114.035815,0
114.035978,0
114.036142,0
114.036305,385813.0313
114.036469,1742572.375
114.036632,4840401
114.036795,8178549.5
114.036959,10517978
114.037122,8354549
114.037286,4979804
114.037449,1815448.125
114.037612,403521.9375
114.037776,0
114.037911,0
114.038074,0
114.038237,0
114.038401,0
115.001555,0
115.00172,0
115.001886,0
115.002051,0
115.002217,0
115.002382,385306.875
115.002548,1483672.875
115.002713,2792987
115.002879,4004103
115.003044,3614148
115.00321,2291889.25
115.003375,1059501.25
115.003541,347207.2813
115.003706,105408.1875
115.003895,0
115.00406,0
115.004226,0
115.004391,0
115.039152,0
115.039318,0
115.039483,0
115.039649,0
115.039814,129112.2891
115.03998,260540.2656
115.040145,362807.5938
115.040311,367784.5938
115.040477,273161.5
115.040642,140968.7188
115.040808,0
115.040973,0
115.041139,0
115.041304,0
115.043622,0
115.043788,0
115.043954,0
115.044119,0
115.044285,176021.7656
115.04445,570749.125
115.044616,1073373
115.044782,1497635.375
115.044947,1311021.75
115.045113,820829.875
115.045278,263295.8125
115.045444,93796.04688
115.045609,0
115.045775,0
115.04594,0
115.046106,0
116.009673,0
116.009841,0
116.010009,0
116.010176,0
116.010344,242513.3281
116.010512,373872.3125
116.010679,403662.2188
116.010847,312260.875
116.011015,159541.3906
116.011182,0
116.01135,0
116.011518,0
116.011685,0
116.051266,0
116.051433,0
116.051601,0
116.051769,0
116.051937,89367.0625
116.052104,257145.2031
116.052272,770633.75
116.05244,1341579.25
116.052608,1716782.5
116.052775,1307290.25
116.052943,738750.75
116.053111,197659.4219
116.053301,0
116.053469,0
116.053637,0
116.053805,0
117.017176,0
117.017346,0
117.017516,0
117.017686,0
117.017856,159835.7031
117.018025,824353
117.018195,2452240
117.018365,4881774
117.018535,7490051
117.018705,7915512.5
117.018875,5419788
117.019045,2877573.25
117.019214,862445.9375
117.019384,140679.2813
117.019531,0
117.019701,0
117.019871,0
117.020041,0
117.03533,0
117.0355,0
117.03567,0
117.035839,0
117.036009,165154.4375
117.036179,719424
117.036349,1373923.25
117.036519,1994939.875
117.036689,1783739.25
117.036859,1096560.25
117.037029,475351.25
117.037199,156393.5938
117.037368,0
117.037538,0
117.037708,0
117.037878,0
118.016995,0
118.017167,0
118.017339,0
118.017511,0
118.017683,231282.5938
118.017855,418015.875
118.018028,531279.0625
118.0182,499925.5938
118.018372,347908.8125
118.018544,170709.5938
118.018753,0
118.018926,0
118.019098,0
118.01927,0
118.409564,0
118.409737,0
118.40991,0
118.410083,0
118.410256,171999.3125
118.410429,299775.7188
118.410602,336434.625
118.410775,257314.5156
118.410947,127326.2969
118.41112,0
118.411293,0
118.411466,0
118.411639,0
118.777476,0
118.77765,0
118.777824,0
118.777997,0
118.778171,140147.75
118.778345,273878.7188
118.778519,353910.875
118.778692,322666.6875
118.778866,205373.2188
118.779064,0
118.779238,0
118.779412,0
118.779586,0
118.996494,0
118.996668,0
118.996842,0
118.997017,0
118.997191,133284.4688
118.997365,505819.9375
118.997539,1213504.875
118.997713,2005944.5
118.997887,2647820.25
118.998062,2328731.25
118.998236,1484629.625
118.99841,690754.8125
118.998584,170377.3125
118.998734,0
118.998908,0
118.999082,0
118.999256,0
119.014238,0
119.014412,0
119.014586,0
119.01476,0
119.014935,246753.4063
119.015109,370194.25
119.015283,412811.1875
119.015457,353551.5938
119.015632,231479.4688
119.015806,0
119.01598,0
119.016155,0
119.016329,0
121.012281,0
121.012459,0
121.012638,0
121.012817,0
121.012995,144449.3438
121.013174,324493.6875
121.013352,506977.875
121.013531,578186.8125
121.01371,483512.25
121.013888,285781.75
121.014067,106431.4063
121.014201,0
121.01438,0
121.014558,0
121.014737,0
121.535159,0
121.535338,0
121.535518,0
121.535698,0
121.535878,0
121.536058,381768.375
121.536237,1633561.375
121.536417,3604527
121.536597,5708799.5
121.536777,6337237.5
121.536956,4608721.5
121.537136,2695855.5
121.537316,1086710.625
121.537496,347132.0625
121.537676,216489.6406
121.5379,0
121.53808,0
121.53826,0
121.538439,0
121.549228,0
121.549408,0
121.549587,0
121.549767,0
121.549947,178907.4688
121.550127,321587.25
121.550307,399858.9063
121.550486,367453.9063
121.550666,246655.6719
121.550846,0
121.551026,0
121.551206,0
121.551386,0
122.035107,0
122.035288,0
122.035469,0
122.03565,0
122.035831,119288.2031
122.036012,255132.4688
122.036193,621647.75
122.036374,1132889.875
122.036555,1533892
122.036736,1236890.75
122.036916,731336.3125
122.037097,253501.3125
122.037278,86029.39063
122.037459,0
122.03764,0
122.037821,0
122.038002,202736.75
122.038183,439395.4688
122.038364,656177.8125
122.038545,699749.75
122.038725,542995.625
122.038906,302807.0313
122.039087,116826.125
122.039308,0
122.039489,0
122.03967,0
122.039851,0
124.066484,0
124.06667,0
124.066855,0
124.06704,0
124.067226,181698.4375
124.067411,282958.625
124.067597,322984.9063
124.067782,274881.75
124.067968,160310.7188
124.068154,0
124.068339,0
124.068525,0
124.06871,0
126.035541,0
126.035731,0
126.035921,0
126.03611,0
126.0363,227684.3906
126.03649,817617.375
126.03668,1452740.5
126.03687,1969860.375
126.03706,1644384.875
126.03725,978911.6875
126.037439,354821.25
126.037629,133123.3594
126.037819,0
126.038009,0
126.038199,0
126.038389,0
126.072003,0
126.072193,0
126.072382,0
126.072572,0
126.072762,220049.2656
126.072952,447115.4375
126.073142,632937.1875
126.073332,647294.625
126.073522,476681.75
126.073712,235634.6094
126.073877,0
126.074067,0
126.074257,0
126.074447,0
127.079564,0
127.079756,0
127.079948,0
127.080141,0
127.080333,77261.85156
127.080525,631121.8125
127.080717,1708092
127.08091,2876369.75
127.081102,3593688
127.081294,2807526.5
127.081486,1675196.875
127.081678,656960.125
127.081871,202247.2188
127.082089,0
127.082281,0
127.082474,0
127.082666,0
128.051265,0
128.05146,0
128.051654,0
128.051849,0
128.052043,172404.7656
128.052237,406301.3125
128.052432,625625.5625
128.052626,669134.4375
128.052821,496062.2188
128.053015,241286.2188
128.053183,0
128.053378,0
128.053572,0
128.053767,0
128.087217,0
128.087412,0
128.087606,0
128.087801,0
128.087995,0
128.08819,300764.5938
128.088385,1284914
128.088579,2840207
128.088774,4525386.5
128.088968,4999261.5
128.089163,3521752.75
128.089357,1933935.125
128.089552,653060.25
128.089746,151484.4063
128.089967,0
128.090162,0
128.090356,0
128.090551,0
128.467986,0
128.468181,0
128.468377,0
128.468572,0
128.468768,154142.4844
128.468963,286775.4688
128.469158,341531.3125
128.469354,281383.9063
128.469549,155574.5469
128.469744,0
128.46994,0
128.470135,0
128.470331,0
128.563583,0
128.563779,0
128.563975,0
128.56417,0
128.564366,203196.9688
128.564562,277551.5625
128.564757,313971.625
128.564953,295298.4375
128.565148,211153.1094
128.565344,0
128.56554,0
128.565735,0
128.565931,0
128.610346,0
128.610542,0
128.610737,0
128.610933,0
128.611129,145400.875
128.611324,279630.5
128.61152,337071.3438
128.611716,285639.2813
128.611912,175343.6406
128.612084,0
128.61228,0
128.612475,0
128.612671,0
129.035088,0
129.035284,0
129.035481,0
129.035678,0
129.035874,225374
129.036071,890002.75
129.036268,1938042.75
129.036464,3080933.25
129.036661,3276578.75
129.036858,2218128.75
129.037055,1160669.625
129.037251,382151.7813
129.037448,161041.25
129.037668,0
129.037865,0
129.038062,0
129.038258,0
129.058913,0
129.05911,0
129.059307,0
129.059503,0
129.0597,123155.4531
129.059897,292707
129.060093,511705.5
129.06029,664710.9375
129.060487,644783.6875
129.060684,464006.3438
129.06088,240012.1875
129.061119,0
129.061316,0
129.061513,0
129.061709,0
130.03058,0
130.030779,0
130.030978,0
130.031177,0
130.031376,156642.3438
130.031575,305794.6875
130.031774,391600.9063
130.031973,359681.8125
130.032172,230618.5781
130.032371,0
130.03257,0
130.032769,0
130.032968,0
130.066799,0
130.066998,0
130.067197,0
130.067396,0
130.067595,195559.8281
130.067794,746571.6875
130.067993,1370699
130.068192,1899797.5
130.068391,1659499.125
130.06859,1041515.25
130.068789,470745.4375
130.068988,139163.3594
130.069183,0
130.069382,0
130.069581,0
130.06978,0
131.032333,0
131.032534,0
131.032735,0
131.032937,0
131.033138,127313.2109
131.033339,584357.9375
131.03354,2522378
131.033742,8530365
131.033943,17184728
131.034144,26455122
131.034346,26854946
131.034547,17732264
131.034748,9032989
131.034949,2840031.75
131.035151,770540.75
131.035352,127329.2266
131.035559,0
131.03576,0
131.035962,0
131.036163,0
131.894975,0
131.895178,0
131.895381,0
131.895584,0
131.895788,204081.8906
131.895991,307233.5
131.896194,320310.5625
131.896397,239992.0313
131.896601,129271.6797
131.896804,0
131.897007,0
131.89721,0
131.897414,0
132.028005,0
132.028209,0
132.028412,0
132.028616,0
132.028819,170666.5
132.029023,436790.9063
132.029227,1098193.625
132.02943,1542286.625
132.029634,1363101.375
132.029837,816665.9375
132.030041,326144.9688
132.030244,119446.7813
132.030406,0
132.03061,0
132.030813,0
132.031017,0
132.032238,0
132.032442,0
132.032646,0
132.032849,0
132.033053,135647.9063
132.033256,758642.5625
132.03346,1696004.625
132.033663,2696026.75
132.033867,2831981.5
132.034071,1923183.375
132.034274,1019660.188
132.034478,330913.9688
132.034681,140960.75
132.034927,0
132.03513,0
132.035334,0
132.035537,0
132.036148,0
132.036352,0
132.036555,0
132.036759,0
132.036962,138175.2188
132.037166,346519.25
132.03737,607190.25
132.037573,781922.125
132.037777,744722
132.03798,515866.5
132.038184,250547.8594
132.038388,90717.35156
132.038591,0
132.038795,0
132.038998,0
132.039202,0
132.040423,0
132.040627,0
132.040831,0
132.041034,0
132.041238,163875.8281
132.041441,342488.4063
132.041645,542227.75
132.041849,653901.9375
132.042052,607408.5625
132.042256,440297.9375
132.042459,250535.6563
132.042663,106616.1172
132.042867,0
132.04307,0
132.043274,0
132.043477,0
132.046328,0
132.046531,0
132.046735,0
132.046939,0
132.047142,139950.5781
132.047346,282583.375
132.04755,333557.9375
132.047753,257366.25
132.047957,124456.7891
132.048153,0
132.048356,0
132.04856,0
132.048763,0
133.011586,0
133.011792,0
133.011998,0
133.012204,0
133.01241,0
133.012615,454848.5
133.012821,2201033.75
133.013027,6732515.5
133.013233,11987644
133.013439,16689512
133.013645,14619854
133.013851,9100250
133.014056,4031306.25
133.014262,1254099.125
133.014468,281062.9063
133.014674,0
133.014888,0
133.015094,0
133.0153,0
133.015506,0
133.029711,0
133.029917,0
133.030123,0
133.030329,0
133.030534,199752.8281
133.03074,504871.3438
133.030946,1128116.375
133.031152,1233875.875
133.031358,788991.0625
133.031564,361645.7813
133.03177,146665.125
133.031979,0
133.032185,0
133.032391,0
133.032596,0
133.04804,0
133.048246,0
133.048452,0
133.048657,0
133.048863,187117.1875
133.049069,1208060
133.049275,4406566
133.049481,12147322
133.049687,20430640
133.049893,25787696
133.050099,19822132
133.050305,11634947
133.050511,4002033
133.050717,1088086
133.050923,179411.1875
133.051126,0
133.051332,0
133.051538,0
133.051744,0
134.011421,0
134.011629,0
134.011837,0
134.012046,0
134.012254,97186.66406
134.012462,252404.375
134.01267,666627.375
134.012878,1155769.375
134.013086,1436590
134.013295,1051559.25
134.013503,467869.7188
134.013711,188911.5938
134.013919,0
134.014127,0
134.014335,0
134.014544,0
134.015585,0
134.015793,0
134.016001,0
134.016209,0
134.016417,235841.8594
134.016625,358058
134.016834,381152.125
134.017042,286429.2188
134.01725,141608.1094
134.017458,0
134.017666,0
134.017875,0
134.018083,0
134.019956,0
134.020165,0
134.020373,0
134.020581,0
134.020789,181913.25
134.020997,300784.8125
134.021206,337882.5
134.021414,277613.6875
134.021622,160623.1563
134.021831,0
134.022039,0
134.022247,0
134.022456,0
134.047651,0
134.047859,0
134.048067,0
134.048275,0
134.048484,12815.14551
134.048692,244131.125
134.0489,964541.0625
134.049109,2059091.25
134.049317,3203765.25
134.049525,3336033.5
134.049733,2240806.75
134.049942,1148534.125
134.05015,301220.5313
134.050358,0
134.050565,0
134.050774,0
134.050982,0
134.05119,0
134.052023,0
134.052231,0
134.05244,0
134.052648,0
134.052856,217769.7344
134.053065,385832.2813
134.053273,439603.0625
134.053481,327692.1563
134.053689,139619.7656
134.053898,0
134.054107,0
134.054315,0
134.054523,0
135.008669,0
135.00888,0
135.00909,0
135.009301,0
135.009511,99614.25
135.009722,251422.5
135.009932,431502.5313
135.010143,556321.375
135.010353,557050
135.010564,420553.3125
135.010774,220456.625
135.010985,0
135.011195,0
135.011406,0
135.011616,0
135.027616,0
135.027826,0
135.028037,0
135.028248,0
135.028458,124260.8906
135.028669,372675.5
135.028879,1000874.75
135.02909,1452001.375
135.0293,1312708.375
135.029511,804139.125
135.029721,299663.6875
135.029932,101033.8672
135.030142,0
135.030353,0
135.030564,0
135.030774,0
135.045303,0
135.045514,0
135.045724,0
135.045935,0
135.046145,215900.5938
135.046356,728177.9375
135.046567,1268601.875
135.046777,1530217.75
135.046988,1076927.25
135.047198,429606.375
135.047409,154508.0313
135.04762,0
135.04783,0
135.048041,0
135.048251,0
135.060888,0
135.061098,0
135.061309,0
135.061519,0
135.06173,85960.27344
135.061941,243605.0156
135.062151,395466.4688
135.062362,427671.4375
135.062573,324647.6875
135.062783,162676.4219
135.062994,0
135.063205,0
135.063415,0
135.063626,0
135.142012,0
135.142223,0
135.142434,0
135.142645,0
135.142856,129343.0156
135.143066,240979.9063
135.143277,287332
135.143488,243348.1563
135.143699,140559.9063
135.143945,0
135.144156,0
135.144367,0
135.144578,0
137.006755,0
137.006971,0
137.007186,0
137.007401,0
137.007616,106468.9219
137.007831,278603.25
137.008047,489707.9688
137.008262,630403.4375
137.008477,608478.1875
137.008692,423250.9688
137.008907,186738.5938
137.009104,0
137.00932,0
137.009535,0
137.00975,0
139.042873,0
139.043093,0
139.043313,0
139.043533,0
139.043753,17318.64844
139.043973,356514.5313
139.044193,1443479.125
139.044413,2952719.75
139.044633,4523789.5
139.044853,4502718
139.045073,2962085
139.045293,1500439.5
139.045513,427712.3125
139.045733,38420.11719
139.045991,0
139.046211,0
139.046431,0
139.046651,0
139.066674,0
139.066894,0
139.067114,0
139.067334,0
139.067554,188472.1406
139.067774,1011485.938
139.067994,3249965
139.068214,6275487
139.068434,9373729
139.068654,9117788
139.068874,5924834.5
139.069094,2907051.75
139.069314,818668.6875
139.069534,143586.0938
139.069737,0
139.069957,0
139.070177,0
139.070397,0
140.050221,0
140.050443,0
140.050666,0
140.050888,0
140.05111,0
140.051333,383461
140.051555,1852303.125
140.051778,7566197
140.052,24676328
140.052222,46963712
140.052445,69319936
140.052667,65392132
140.05289,41756216
140.053112,19812562
140.053334,6015076
140.053557,1598772.75
140.053779,459684.7813
140.054002,0
140.054226,0
140.054448,0
140.05467,0
140.054893,0
140.066459,0
140.066681,0
140.066904,0
140.067126,0
140.067349,106228.2969
140.067571,240597
140.067793,398270.9688
140.068016,519662.5313
140.068238,534937.5625
140.068461,416635.5625
140.068683,230280.6875
140.068906,0
140.069128,0
140.069351,0
140.069573,0
140.070463,0
140.070685,0
140.070908,0
140.07113,0
140.071353,170308.7969
140.071575,398622.0625
140.071797,583692.8125
140.07202,571555.125
140.072242,367947.875
140.072465,138944.5156
140.072687,0
140.07291,0
140.073132,0
140.073355,0
140.081141,0
140.081363,0
140.081586,0
140.081808,0
140.082031,167956.625
140.082253,326398.7188
140.082476,404457.7188
140.082698,333340.4063
140.08292,178573.6875
140.083144,0
140.083366,0
140.083589,0
140.083811,0
140.951925,0
140.95215,0
140.952374,0
140.952599,0
140.952823,206453.3906
140.953048,303095.8125
140.953272,324828
140.953497,241452.2813
140.953721,102967.125
140.953946,0
140.954171,0
140.954395,0
140.95462,0
141.040214,0
141.040439,0
141.040664,0
141.040888,0
141.041113,95132.53906
141.041338,260355.7656
141.041563,346755.3438
141.041787,285472.0313
141.042012,145730.3906
141.042237,0
141.042462,0
141.042686,0
141.042911,0
141.046283,0
141.046507,0
141.046732,0
141.046957,0
141.047182,127896.8281
141.047407,374519.5
141.047631,633463.6875
141.047856,707474.8125
141.048081,537256.8125
141.048306,273406.25
141.04853,92070.29688
141.048754,0
141.048979,0
141.049204,0
141.049429,0
141.050328,0
141.050552,0
141.050777,0
141.051002,0
141.051227,153875.1406
141.051452,892785.625
141.051676,2056107.5
141.051901,3334830.5
141.052126,3780150
141.052351,2682371.25
141.052576,1453606.125
141.0528,434060.9688
141.053025,66579.78906
141.053238,0
141.053463,0
141.053688,0
141.053913,0
141.054137,0
141.054362,0
141.054587,0
141.054812,0
141.055037,405381.5
141.055261,1474357
141.055486,3020164.75
141.055711,4666657
141.055936,4880353.5
141.056161,3329932
141.056385,1777766.5
141.05661,556347.875
141.056835,6520.396484
141.057078,0
141.057303,0
141.057528,0
141.057753,0
141.058427,0
141.058652,0
141.058877,0
141.059101,0
141.059326,51438.5
141.059551,452958.5938
141.059776,1476660
141.060001,2776862
141.060226,4105961
141.06045,3890393.25
141.060675,2466433
141.0609,1157811.875
141.061125,306922.4063
141.06135,9855.836914
141.061569,0
141.061793,0
141.062018,0
141.062243,0
141.064041,0
141.064266,0
141.064491,0
141.064716,0
141.064941,167822.2188
141.065166,295224.75
141.06539,387344.1563
141.065615,385474.7188
141.06584,267220.5625
141.066065,103275.3828
141.06634,0
141.066565,0
141.06679,0
141.067015,0
142.030114,0
142.030341,0
142.030568,0
142.030795,0
142.031022,148317.2188
142.031249,706515.625
142.031477,1463796.5
142.031704,2284698.75
142.031931,2519884.5
142.032158,1780056.125
142.032385,952554.5625
142.032612,264592
142.032839,145060.7188
142.033052,0
142.033279,0
142.033507,0
142.033734,0
142.04759,0
142.047817,0
142.048045,0
142.048272,0
142.048499,111955.1953
142.048726,312290.375
142.048953,943999.1875
142.04918,1591481.125
142.049408,1955313.25
142.049635,1475988.5
142.049862,856099
142.050089,281127.5
142.050316,101508.5938
142.050543,0
142.050771,0
142.050998,0
142.051225,0
142.06622,0
142.066447,0
142.066675,0
142.066902,0
142.067129,102635.7578
142.067356,239991.2344
142.067583,672594.875
142.067811,1195352.25
142.068038,1715389.875
142.068265,1702803.875
142.068492,1135077.75
142.068719,540026.625
142.068947,163082.1563
142.069176,0
142.069404,0
142.069631,0
142.069858,0
144.02833,0
144.028562,0
144.028794,0
144.029026,0
144.029258,203123
144.02949,355021.1563
144.029722,422152.8125
144.029954,349910.8438
144.030186,180114.3594
144.030419,0
144.030651,0
144.030883,0
144.031115,0
145.011893,0
145.012127,0
145.012361,0
145.012596,0
145.01283,212767.7188
145.013064,320866.5938
145.013299,335381.6563
145.013533,295291.9063
145.013767,229443.3438
145.014002,0
145.014236,0
145.014471,0
145.014705,0
145.308292,0
145.308527,0
145.308762,0
145.308997,0
145.309232,103193.3047
145.309467,256161.125
145.309702,335797.4375
145.309937,279995.6563
145.310172,160773.1719
145.31041,0
145.310645,0
145.31088,0
145.311115,0
147.030535,0
147.030775,0
147.031014,0
147.031253,0
147.031492,73857.95313
147.031732,508952.3125
147.031971,1052466.125
147.03221,2032367.25
147.032449,3068018.75
147.032688,3372762
147.032928,2328292
147.033167,1172851.25
147.033406,41568.37109
147.033645,0
147.033885,0
147.034124,0
147.034363,0
147.057333,0
147.057572,0
147.057811,0
147.058051,0
147.05829,0
147.058529,0
147.058768,0
147.059008,0
147.059247,0
147.059486,0
147.059726,0
147.059965,0
147.060204,0
147.060444,0
147.060683,0
147.060922,0
147.061161,0
147.061401,0
147.06164,0
147.061879,0
147.062119,0
147.062358,0
147.062597,0
147.062852,0
147.063091,0
147.06333,0
147.06357,0
147.063809,0
147.064048,2153088.5
147.064288,6216188
147.064527,15870386
147.064766,53601024
147.065006,167203648
147.065245,306603456
147.065484,436002848
147.065724,384978432
147.065963,236810784
147.066202,99876216
147.066442,26799796
147.066681,7705425.5
147.06692,6358542.5
147.067159,3127404.75
147.067399,503415.2188
147.067638,0
147.067862,0
147.068102,0
147.068341,0
147.06858,0
147.06882,0
147.069059,0
147.069298,0
147.069537,0
147.069777,0
147.070016,0
147.070255,0
147.070495,0
147.075999,0
147.076239,0
147.076478,0
147.076717,0
147.076957,0
147.077196,0
147.077436,0
147.077675,0
147.077914,0
147.078154,0
147.078393,0
147.078632,0
147.078872,0
147.079111,0
147.095867,0
147.096106,0
147.096346,0
147.096585,0
147.096824,118198.9375
147.097064,1246575.5
147.097303,1923567.25
147.097542,2120224.25
147.097782,1244647.125
147.098021,322503.4063
147.098261,0
147.0985,0
147.098739,0
147.098979,354126.8438
147.099218,925979.25
147.099458,596240
147.099697,114337.0234
147.09995,0
147.100189,0
147.100429,0
147.100668,0
148.062723,0
148.062965,0
148.063206,0
148.063448,0
148.06369,0
148.063932,276231.875
148.064173,2377397.75
148.064415,8262819.5
148.064657,19756876
148.064899,32170238
148.065141,38379056
148.065382,28633978
148.065624,16536413
148.065866,5651806.5
148.066108,1223084.875
148.066349,0
148.066549,0
148.066791,0
148.067032,0
148.067274,0
148.067516,0
148.067758,0
148.068,2240792.75
148.068241,7584208
148.068483,14084108
148.068725,20347032
148.068967,19063706
148.069208,12339795
148.06945,6039672
148.069692,1887340.25
148.069934,296328.4688
148.070175,0
148.070447,0
148.070689,0
148.070931,0
148.071172,0
148.071414,507842.3125
148.071656,386475.7813
148.071898,263477.0938
148.072139,173555.5625
148.072381,0
148.072623,0
148.072865,0
148.073107,0
148.126796,0
148.127038,0
148.12728,0
148.127522,0
148.127764,87682.85156
148.128005,255781.3594
148.128247,382152.4063
148.128489,353135.9063
148.128731,219033.1094
148.129011,0
148.129253,0
148.129495,0
148.129737,0
149.009374,0
149.009618,0
149.009862,0
149.010106,0
149.01035,63356.00781
149.010594,281224.5625
149.010838,1064936
149.011082,1626609.625
149.011326,1658052
149.01157,1086482.625
149.011815,547324.9375
149.012059,0
149.012303,0
149.012547,0
149.012791,0
149.013035,0
149.021578,0
149.021822,0
149.022066,0
149.022311,0
149.022555,179301.0938
149.022799,255040.8281
149.023043,288645.5938
149.023287,325139.625
149.023531,310056.625
149.023775,184635.7031
149.024019,0
149.024264,0
149.024508,0
149.024752,0
149.038911,0
149.039155,0
149.0394,0
149.039644,0
149.039888,0
149.040132,0
149.040376,0
149.04062,0
149.040864,0
149.04112,0
149.041364,0
149.041608,0
149.041852,0
149.042096,0
149.042341,0
149.042585,0
149.042829,0
149.043073,0
149.043317,793912.5
149.043561,2562070.75
149.043806,8665196
149.04405,30400712
149.044294,91739592
149.044538,161466928
149.044782,219511456
149.045026,182547952
149.04527,109852472
149.045515,42252264
149.045759,11230055
149.046003,3092027.25
149.046247,2370862.25
149.046491,423533.5
149.046735,0
149.046988,0
149.047232,0
149.047476,0
149.047721,0
149.060174,0
149.060418,0
149.060662,0
149.060907,0
149.061151,36815.35156
149.061395,1367164.875
149.061639,5107508
149.061883,13506120
149.062128,22492072
149.062372,28576162
149.062616,22531994
149.06286,13400570
149.063104,4804759.5
149.063349,1120746.5
149.063593,52450.98438
149.063817,0
149.064062,0
149.064306,464972.9375
149.06455,636134.3125
149.064794,665206.6875
149.065038,483817.9375
149.065283,228978.0781
149.065603,0
149.065847,0
149.066091,0
149.066335,0
149.066579,0
149.066824,0
149.067068,0
149.067312,0
149.067556,224514.4375
149.0678,725077.375
149.068045,1465160.625
149.068289,2314670.25
149.068533,2568835
149.068777,1714923.25
149.069022,793177.125
149.069266,220481.0469
149.069434,0
149.069679,0
149.069923,0
149.070167,0
149.075784,0
149.076029,0
149.076273,0
149.076517,0
149.076761,41052.29688
149.077006,330472.9688
149.07725,736090.625
149.077494,1341636.75
149.077738,774490.8125
149.077983,237021.4844
149.078247,0
149.078491,0
149.078735,0
149.078979,0
150.042041,0
150.042287,0
150.042534,0
150.04278,0
150.043027,0
150.043274,455643.0625
150.04352,1995821.5
150.043767,6130510.5
150.044014,11565992
150.04426,17180782
150.044507,16443208
150.044753,10519778
150.045,5035007.5
150.045247,1444917.5
150.045493,129989.2891
150.045727,0
150.045973,0
150.04622,0
150.046467,0
150.046713,0
150.04696,0
150.047207,493473.8438
150.047453,2207591
150.0477,5066992
150.047946,8187039.5
150.048193,9449066
150.04844,6815059.5
150.048686,3770287.75
150.048933,1216021.375
150.04918,250290.0781
150.049426,0
150.049668,0
150.049914,0
150.050161,0
150.050408,0
150.060027,0
150.060274,0
150.06052,0
150.060767,0
150.061014,100223.1016
150.06126,261804.9531
150.061507,531396.5
150.061754,1182554.25
150.062,1390055.25
150.062247,925925.4375
150.062494,343039.4688
150.06274,85108.28125
150.062987,0
150.063234,0
150.06348,0
150.063727,0
150.063974,0
150.06422,0
150.064467,0
150.064714,89737.79688
150.06496,282205.7188
150.065207,511219.3438
150.065454,661074.1875
150.0657,682069.3125
150.065947,560778.875
150.066194,328435.9063
150.06644,107423.2422
150.066646,0
150.066893,0
150.06714,0
150.067386,0
151.021876,0
151.022125,0
151.022374,0
151.022623,0
151.022872,68761.13281
151.023121,596529.9375
151.02337,2199125.25
151.023619,4602519.5
151.023868,7135085
151.024117,7294654
151.024366,4919092
151.024616,2650149
151.024865,907742.3125
151.025114,135077.6563
151.025403,0
151.025652,0
151.025901,0
151.02615,0
151.03935,0
151.039599,0
151.039849,0
151.040098,0
151.040347,0
151.040596,367340.9688
151.040845,1766029.5
151.041094,4959447
151.041343,8526234
151.041592,11511810
151.041841,9759009
151.04209,5979623
151.042339,2525037.25
151.042588,780301.125
151.042838,79547.02344
151.043089,0
151.043338,0
151.043587,0
151.043836,0
151.047323,0
151.047572,0
151.047822,0
151.048071,0
151.04832,137740.0938
151.048569,398804.2813
151.048818,564683.6875
151.049067,490127.4688
151.049316,276984.9375
151.049565,102207.5625
151.049816,0
151.050065,0
151.050314,0
151.050563,0
152.039616,0
152.039867,0
152.040119,0
152.04037,0
152.040622,226818.9063
152.040874,483702.8438
152.041125,612309.875
152.041377,479011.25
152.041628,219000.0781
152.04188,0
152.042131,0
152.042383,0
152.042635,0
152.050685,0
152.050937,0
152.051188,0
152.05144,0
152.051691,63648.98047
152.051943,274877.8125
152.052194,483625.8125
152.052446,521389.875
152.052698,417580.5938
152.052949,299638.5938
152.053201,193568.6094
152.053453,0
152.053705,0
152.053956,0
152.054208,0
152.510618,0
152.51087,0
152.511123,0
152.511376,0
152.511629,114467.5781
152.511881,297997.9375
152.512134,379413.1875
152.512387,264657.2188
152.51264,85581.95313
152.512895,0
152.513147,0
152.5134,0
152.513653,0
154.064282,0
154.064538,0
154.064795,0
154.065051,0
154.065308,0
154.065565,0
154.065821,0
154.066078,0
154.066334,532527.0625
154.066591,0
154.066824,0
154.067081,279194.0938
154.067337,2194653
154.067594,7140549.5
154.067851,12766514
154.068107,17748642
154.068364,15688073
154.06862,9929517
154.068877,4485037
154.069134,1395595.5
154.06939,364365.3438
154.069647,77039.29688
154.069927,0
154.070184,0
154.07044,0
154.070697,0
154.070953,0
154.07121,164539.7344
154.071467,266124.8125
154.071723,375200.1563
154.07198,319182.75
154.072237,128299.7188
154.072495,0
154.072751,0
154.073008,0
154.073265,0
155.065771,0
155.06603,0
155.066289,0
155.066548,0
155.066807,173412.5469
155.067067,448873.6875
155.067326,705396.875
155.067585,784345.3125
155.067844,695974.5625
155.068103,510814.5
155.068362,283044.375
155.068621,105932.6953
155.06888,0
155.069139,0
155.069399,0
155.069658,0
155.069917,0
155.070176,0
155.070435,0
155.070694,138891.2031
155.070953,447005.75
155.071212,1079728.375
155.071471,1609586.75
155.071731,1290998.5
155.07199,752866.5
155.072249,259890.0469
155.072508,90051.00781
155.072736,0
155.072995,0
155.073254,0
155.073513,0
155.073772,0
155.074031,0
155.074291,0
155.07455,0
155.074809,24915.10742
155.075068,701473.8125
155.075327,2637282.75
155.075586,5069788
155.075845,7473025
155.076104,7268923
155.076364,4857323.5
155.076623,2480480.75
155.076882,798414.875
155.077141,207971.9531
155.077401,0
155.07766,0
155.077919,0
155.078178,0
155.097356,0
155.097615,0
155.097874,0
155.098134,0
155.098393,23120.64258
155.098652,328786.2188
155.098911,2001566.5
155.09917,6983883
155.09943,13246958
155.099689,19394322
155.099948,18258588
155.100207,11804675
155.100466,5751632.5
155.100725,1859597.75
155.100985,528748.5
155.101244,112890.9766
155.10179,0
155.102049,0
155.102309,0
155.102568,0
156.045397,0
156.045658,0
156.04592,0
156.046181,0
156.046443,266793.5313
156.046705,1368075.25
156.046966,2294908.75
156.047228,3719932.25
156.047489,7609209
156.047751,13610347
156.048012,19878442
156.048274,19343148
156.048536,11838751
156.048797,4664422
156.049059,0
156.049065,0
156.049327,0
156.049588,0
156.04985,0
156.050112,0
156.050373,269031.7813
156.050635,483025.2813
156.050896,485520.6563
156.051158,342921.6875
156.051419,171412.4688
156.051681,0
156.051943,0
156.052204,0
156.052466,0
156.055082,0
156.055343,0
156.055605,0
156.055866,0
156.056128,101233.0781
156.05639,327971.625
156.056651,522023.4375
156.056913,517726.4688
156.057174,371131.1563
156.057436,224841.0625
156.057698,0
156.057959,0
156.058221,185187.2813
156.058482,358788.6875
156.058744,437773.8125
156.059006,317804.0625
156.059267,127468.25
156.059529,0
156.05979,129153.6328
156.060052,289946.0625
156.060314,476678.7188
156.060575,606974.3125
156.060837,569521.0625
156.061098,365361.2813
156.06136,144773.1719
156.061622,0
156.061883,0
156.062145,0
156.062406,0
156.062668,0
156.06293,0
156.063191,209591.5313
156.063453,575732
156.063714,1253710.5
156.063976,1278742
156.064238,749077.75
156.064499,212672.1406
156.064761,0
156.065022,0
156.065284,0
156.065546,0
156.065807,0
156.066069,0
156.066331,0
156.066592,0
156.066854,0
156.067115,0
156.067377,0
156.067639,0
156.0679,0
156.068162,0
156.068424,0
156.068685,0
156.068947,0
156.069208,0
156.06947,0
156.069732,0
156.069993,0
156.070255,0
156.070517,0
156.070778,0
156.07104,0
156.071301,0
156.071563,0
156.071825,0
156.072086,0
156.072348,0
156.07261,0
156.072871,0
156.073133,0
156.073394,0
156.073656,0
156.073918,0
156.074179,0
156.07448,0
156.074742,0
156.075003,0
156.075265,0
156.075526,0
156.075788,0
156.07605,0
156.076311,0
156.076573,0
156.076835,0
156.077096,0
156.077358,0
156.07762,0
156.077881,0
156.078143,0
156.078405,0
156.078666,0
156.078928,0
156.079189,0
156.079451,0
156.079713,0
156.079974,0
156.080236,0
156.080498,0
156.080759,0
156.081021,0
156.081283,0
156.081548,0
156.081809,0
156.082071,1040843.438
156.082333,21954726
156.082594,35697004
156.082856,127241800
156.083118,457234688
156.083379,1231562880
156.083641,2064567808
156.083903,2552689408
156.084164,1916620544
156.084426,1103412096
156.084688,363536992
156.084949,99905392
156.085211,31254684
156.085473,18830582
156.085734,0
156.085993,0
156.086254,0
156.086516,0
156.086778,0
156.087039,0
156.087301,0
156.087563,0
156.087824,0
156.088086,0
156.088348,0
156.088609,0
156.088871,0
156.089133,0
156.089394,0
156.089656,0
156.089918,0
156.090179,0
156.090441,0
156.090703,0
156.090964,0
156.091226,0
156.091488,0
156.091749,0
156.092011,0
156.092273,0
156.092534,0
156.092796,0
156.093058,0
156.09332,0
156.093581,0
156.093843,0
156.094105,0
156.094366,0
156.094628,0
156.09489,0
156.095151,0
156.095413,0
156.095675,0
156.095936,0
156.096198,0
156.09646,0
156.096721,0
156.096983,0
156.097245,0
156.097507,0
156.097768,0
156.09803,0
156.098292,0
156.098553,0
156.098815,0
156.099077,0
156.099338,0
156.0996,0
156.099862,0
156.100124,0
156.100385,0
156.100647,0
156.100909,0
156.10117,0
156.101432,0
156.101694,0
156.101956,150393.625
156.102217,322886.0313
156.102479,1055617
156.102741,1754151.75
156.103002,2017823.75
156.103264,1415858.25
156.103526,712919.25
156.103787,54402.35547
156.104049,0
156.104311,0
156.104573,0
156.104834,0
156.106405,0
156.106666,0
156.106928,0
156.10719,0
156.107451,0
156.107713,377976.4063
156.107975,698807.25
156.108237,567195.5
156.108498,296646.4688
156.10876,95730.20313
156.109022,0
156.109284,182367.9375
156.109545,493702.875
156.109807,1177372.625
156.110069,1157755.5
156.11033,591954.3125
156.110592,285935.7813
156.110854,0
156.111116,0
156.111377,0
156.111639,0
156.116612,0
156.116874,0
156.117136,0
156.117397,0
156.117659,99491.79688
156.117921,2743410.25
156.118183,5794587
156.118444,8996672
156.118706,12672286
156.118968,12467544
156.11923,6725892.5
156.119491,752777.8125
156.119753,0
156.120015,0
156.120277,0
156.120538,3774277.5
156.1208,5932913.5
156.121062,4936819.5
156.121324,2163359
156.121585,0
156.121849,0
156.122111,0
156.122372,0
156.122634,0
157.045478,0
157.045742,0
157.046006,0
157.04627,0
157.046535,140693.5313
157.046799,434043.4375
157.047063,681346.875
157.047327,672862.6875
157.047591,460977.8125
157.047855,244876.9063
157.048119,0
157.048383,0
157.048647,0
157.048911,0
157.049175,0
157.04944,0
157.049704,0
157.049968,107520.0938
157.050232,327342.625
157.050496,569027.5625
157.05076,784384.25
157.051024,1077171.75
157.051288,604433.25
157.051552,14433.14746
157.051816,0
157.052081,0
157.052345,0
157.052609,0
157.077173,0
157.077437,0
157.077701,0
157.077966,0
157.07823,28631.90625
157.078494,958361
157.078758,2057814
157.079022,2521457.75
157.079286,2437159.25
157.079551,1641104.875
157.079815,822236.25
157.080079,1328174.125
157.080343,4108173.25
157.080607,7631758
157.080871,9021169
157.081136,8339835
157.0814,4869305.5
157.081664,1098503
157.081928,439709.6563
157.082168,1027389.188
157.082432,6802319
157.082696,27743306
157.082961,63473384
157.083225,102560360
157.083489,112552808
157.083753,78446360
157.084017,43624496
157.084282,13835553
157.084546,1878104.75
157.08481,0
157.085092,0
157.085356,0
157.08562,0
157.085884,1290552
157.086148,11755605
157.086413,48341152
157.086677,109342104
157.086941,175325936
157.087205,192091024
157.087469,131419136
157.087734,69101968
157.087998,20906080
157.088262,5681448.5
157.088526,2596060
157.08879,708882.4375
157.089054,0
157.089325,0
157.089589,0
157.089854,0
157.090118,0
157.090382,0
157.090646,0
157.09091,0
157.091175,889187.5625
157.091439,720293.0625
157.091703,561775.8125
157.091967,286667.6875
157.092231,0
157.092496,0
157.09276,0
157.093024,0
157.094874,0
157.095138,0
157.095402,0
157.095666,0
157.09593,0
157.096195,0
157.096459,0
157.096723,0
157.096987,0
157.097251,0
157.097516,0
157.09778,0
157.098044,0
157.098308,0
157.117334,0
157.117598,0
157.117862,0
157.118126,0
157.118391,100734.7891
157.118655,360276.5938
157.118919,514827
157.119183,418631.9688
157.119448,210763.7969
157.119712,0
157.119976,0
157.120241,0
157.120505,0
157.120769,0
157.121033,0
157.121298,0
157.121562,0
157.121826,147605.8281
157.12209,413513.0625
157.122355,588933.25
157.122619,595964.375
157.122883,209250.625
157.123148,0
157.123412,0
157.123676,0
157.12394,575721.625
157.124205,574044.5
157.124469,293150.875
157.124733,4314.000488
157.124999,0
157.125263,0
157.125528,0
157.125792,0
158.006909,0
158.007175,0
158.007442,0
158.007708,0
158.007975,215851.9844
158.008241,466973.0625
158.008508,614623.875
158.008774,505028.1563
158.009041,248078.2969
158.009307,0
158.009574,0
158.009841,0
158.010107,0
158.043161,0
158.043427,0
158.043694,0
158.043961,0
158.044227,92710.52344
158.044494,434504.8438
158.04476,1398577.25
158.045027,1552997.5
158.045294,1036767.75
158.04556,558367.1875
158.045827,221541.6875
158.046077,0
158.046344,0
158.04661,0
158.046877,0
158.060742,0
158.061008,0
158.061275,0
158.061541,0
158.061808,47302.79688
158.062075,465722.9688
158.062341,1617082.875
158.062608,3278539.5
158.062875,5016572.5
158.063141,4827135.5
158.063408,3070484.5
158.063675,1503406.375
158.063941,466968.625
158.064208,35758.89844
158.064482,0
158.064749,0
158.065015,0
158.065282,0
158.077549,0
158.077816,0
158.078082,0
158.078349,0
158.078616,126455.1328
158.078882,611747.625
158.079149,986159.9375
158.079416,1772102.5
158.079682,7327493.5
158.079949,25764046
158.080216,52374928
158.080483,80680728
158.080749,81516280
158.081016,53603492
158.081283,26992050
158.081549,8253123.5
158.081816,2401150.75
158.082083,1090132.75
158.082349,145792.0781
158.082448,0
158.082715,0
158.082982,0
158.083248,0
158.084315,0
158.084582,0
158.084848,0
158.085115,0
158.085382,0
158.085649,715227.5625
158.085915,3433765.5
158.086182,6358599
158.086449,8523856
158.086715,6651679
158.086982,4005425
158.087249,2037401.625
158.087516,1961167.25
158.08796,2667030
158.088226,2901715.25
158.088493,1893855
158.08876,581452.25
158.089027,0
158.08927,0
158.089536,414757.625
158.089803,1792608.25
158.09007,3379433.75
158.090337,5023817
158.090603,4511697.5
158.09087,2737231.75
158.091137,1089541.875
158.091403,214759.7344
158.091696,0
158.091962,0
158.092229,0
158.092496,0
159.064647,0
159.064916,0
159.065185,0
159.065454,0
159.065724,129981.3672
159.065993,301128.0625
159.066262,381560.8438
159.066531,331494.0625
159.0668,254567.1094
159.067097,0
159.067367,0
159.067636,0
159.067905,0
159.081635,0
159.081904,0
159.082174,0
159.082443,0
159.082712,0
159.082981,321427.25
159.083251,1292997
159.08352,2748416.25
159.083789,4264677.5
159.084058,4911847.5
159.084328,3725249.75
159.084597,2197693.75
159.084866,772520.3125
159.085135,163046.7188
159.08538,0
159.08565,0
159.085919,0
159.086188,0
161.092276,0
161.092551,0
161.092825,0
161.0931,0
161.093374,277794.2813
161.093648,973362.5625
161.093923,1632811.125
161.094197,2197333
161.094471,1912318.75
161.094746,1165047.125
161.09502,400290.1563
161.095294,63578.97656
161.095655,0
161.095929,0
161.096204,0
161.096478,0
167.052996,0
167.053286,0
167.053575,0
167.053865,0
167.054155,133616.4688
167.054445,852887.9375
167.054734,1995203.25
167.055024,3256223
167.055314,3782788.5
167.055603,2729736
167.055893,1489607.125
167.056183,439718.1563
167.056473,110344.9297
167.056728,0
167.057018,0
167.057308,0
167.057598,0
167.061654,0
167.061944,0
167.062233,0
167.062523,0
167.062813,173283.75
167.063103,412994.2188
167.063392,595826.6875
167.063682,560513.4375
167.063972,333608.9688
167.064262,109541.1172
167.064551,0
167.064841,0
167.065131,0
167.065421,0
168.045026,0
168.045318,0
168.04561,0
168.045902,0
168.046195,97618.67188
168.046487,528257.0625
168.046779,1246156.75
168.047072,2065891
168.047364,2454156.25
168.047656,1818982.375
168.047949,1037835.313
168.048241,384589.5938
168.048533,144928.3438
168.048832,0
168.049124,0
168.049416,0
168.049709,0
170.024615,0
170.024913,0
170.02521,0
170.025508,0
170.025805,122454.0781
170.026103,331681.1875
170.0264,576742.9375
170.026698,681892.3125
170.026995,546815.25
170.027293,285347.25
170.02759,0
170.027888,0
170.028185,0
170.028483,0
170.042763,0
170.043061,0
170.043359,0
170.043656,0
170.043954,142021.3594
170.044251,628658.125
170.044549,1284280.25
170.044846,1928277
170.045144,1877388.125
170.045441,1268358.875
170.045739,687499.9375
170.046036,205828.2188
170.046338,0
170.046636,0
170.046933,0
170.047231,0
172.058164,0
172.058467,0
172.05877,0
172.059073,0
172.059376,124296.7891
172.059678,370214.9688
172.059981,981776.0625
172.060284,1676918.375
172.060587,2149282
172.06089,1676289.75
172.061193,967159.5625
172.061496,332704.3125
172.061798,95333.49219
172.062192,0
172.062494,0
172.062797,0
172.0631,0
174.037274,0
174.037582,0
174.03789,0
174.038198,0
174.038506,0
174.038814,479983.4375
174.039122,1381636.5
174.03943,2583150.25
174.039738,3829939.5
174.040047,4110432.5
174.040355,2969015.25
174.040663,1684570.375
174.040971,584256.3125
174.041279,56686.47656
174.041546,0
174.041854,0
174.042163,0
174.042471,0
175.058062,0
175.058373,0
175.058684,0
175.058995,0
175.059306,182299
175.059616,493657.25
175.059927,1042146.375
175.060238,1573671.375
175.060549,1442349.75
175.06086,881103.5
175.06117,336522.2188
175.061481,124486.8984
175.061801,0
175.062112,0
175.062423,0
175.062734,0
179.050117,0
179.050439,0
179.05076,0
179.051082,0
179.051403,269085.75
179.051725,540794.5
179.052046,709318.375
179.052368,630985.0625
179.052689,368499.7813
179.053011,121392.4766
179.053387,0
179.053709,0
179.05403,0
179.054352,0
183.068285,0
183.068617,0
183.068949,0
183.069282,0
183.069614,145874.4063
183.069947,457805.0313
183.070279,1122340.875
183.070611,1829492.5
183.070944,2110428.75
183.071276,1516962.375
183.071608,838262.875
183.071941,212428.125
183.072278,0
183.072611,0
183.072943,0
183.073275,0
185.048179,0
185.048517,0
185.048855,0
185.049193,0
185.049531,184279.4531
185.049868,338589.625
185.050206,396957.4375
185.050544,327119.6563
185.050882,196163.375
185.051186,0
185.051524,0
185.051861,0
185.052199,0
185.070779,0
185.071117,0
185.071455,0
185.071792,0
185.07213,0
185.072468,424693.875
185.072806,2645843
185.073144,8004964
185.073482,13893298
185.073819,18727796
185.074157,15835204
185.074495,9777766
185.074833,4172574.75
185.075171,1290868.75
185.075509,219174.4375
185.075885,0
185.076223,0
185.076561,0
185.076899,0
186.055133,0
186.055474,0
186.055815,0
186.056155,0
186.056496,60645.69922
186.056836,435683.125
186.057177,1246924.5
186.057517,2131318.25
186.057858,2834519.75
186.058198,2361899.25
186.058539,1426496
186.058879,564444.0625
186.05922,116874.0469
186.059558,0
186.059899,0
186.060239,0
186.06058,0
186.071137,0
186.071478,0
186.071818,0
186.072159,0
186.0725,154652.5313
186.07284,321189.1875
186.073181,414190.2813
186.073521,376537.7188
186.073862,263716.9063
186.074203,0
186.074543,0
186.074884,0
186.075224,0
186.075565,210390.5938
186.075906,396524.5625
186.076246,1052644.375
186.076587,1574805.25
186.076927,1800637
186.077268,1653159
186.077609,1052131.625
186.077949,489445.0313
186.07829,164983.9844
186.078633,0
186.078973,0
186.079314,0
186.079655,0
187.068607,0
187.068951,0
187.069294,0
187.069637,0
187.069981,215422.7656
187.070324,355297.8125
187.070667,420716.3438
187.071011,377908.4688
187.071354,255790.2813
187.071704,0
187.072047,0
187.072391,0
187.072734,0
189.765392,0
189.765743,0
189.766094,0
189.766444,0
189.766795,152839.25
189.767146,281674.4375
189.767497,337903.8438
189.767847,272002.4063
189.768198,136845
189.768433,0
189.768784,0
189.769135,0
189.769486,0
190.081016,0
190.081367,0
190.081719,0
190.082071,0
190.082422,193114.0625
190.082774,1014405.375
190.083126,2122420.75
190.083477,3295764
190.083829,3238652.5
190.084181,2123818.5
190.084532,1092818.125
190.084884,408636.8125
190.085236,129488.6953
190.085773,0
190.086125,0
190.086477,0
190.086828,0
198.037787,0
198.038161,0
198.038535,0
198.038909,0
198.039283,180048.2031
198.039657,310278.0625
198.040031,359911.4063
198.040405,297178.625
198.040779,163484.0469
198.041221,0
198.041594,0
198.041968,0
198.042342,0
204.066045,0
204.066436,0
204.066827,0
204.067219,0
204.06761,160008.7031
204.068001,309065.8438
204.068392,384790.5625
204.068783,321961.6563
204.069175,162464.6875
204.069611,0
204.070002,0
204.070394,0
204.070785,0
207.028955,0
207.029354,0
207.029754,0
207.030154,0
207.030553,180735.6563
207.030953,850173.9375
207.031353,2165350
207.031753,3570218.5
207.032152,4369024.5
207.032552,3365546.75
207.032952,1983018.25
207.033351,667907.8125
207.033751,72161.17188
207.03412,0
207.03452,0
207.03492,0
207.03532,0
209.008801,0
209.009207,0
209.009612,0
209.010018,0
209.010423,221207.75
209.010829,338475.7813
209.011234,390205.4688
209.01164,342397.6875
209.012045,212967.0313
209.012453,0
209.012858,0
209.013264,0
209.013669,0
209.727099,0
209.727506,0
209.727914,0
209.728321,0
209.728729,169209.1719
209.729136,298908.25
209.729544,353865.125
209.729951,298746.75
209.730359,181398.0469
209.730774,0
209.731181,0
209.731589,0
209.731996,0
212.089076,0
212.08949,0
212.089905,0
212.090319,0
212.090734,167569.8125
212.091148,425335.2813
212.091563,671059.375
212.091977,723465.375
212.092391,539816.0625
212.092806,265675.9688
212.09322,76953.32813
212.093638,0
212.094052,0
212.094467,0
212.094881,0
213.060575,0
213.060992,0
213.061409,0
213.061827,0
213.062244,84792.91406
213.062661,303727.6875
213.063079,519645.2188
213.063496,562848.625
213.063913,403638.7813
213.064331,180553.9688
213.064751,0
213.065168,0
213.065585,0
213.066003,0
214.010614,0
214.011035,0
214.011455,0
214.011875,0
214.012295,126895.1641
214.012715,314686.6563
214.013135,493814.875
214.013555,559781
214.013975,483833.2188
214.014395,321171.75
214.014816,156539.9375
214.015231,0
214.015651,0
214.016071,0
214.016491,0
214.066914,0
214.067335,0
214.067755,0
214.068175,0
214.068595,0
214.069016,471547.0625
214.069436,3729067.5
214.069856,14093100
214.070277,41501120
214.070697,72753936
214.071117,99385768
214.071537,84792520
214.071958,52095504
214.072378,22001028
214.072798,6340698.5
214.073219,990241.375
214.073639,0
214.074064,0
214.074485,0
214.074905,0
214.075325,0
214.104749,0
214.105169,0
214.105589,0
214.10601,0
214.10643,129154.3516
214.106851,299031.875
214.107271,427802.1875
214.107691,421909.125
214.108112,291569.875
214.108532,133530.5156
214.108955,0
214.109376,0
214.109796,0
214.110217,0
215.06729,0
215.067714,0
215.068137,0
215.06856,0
215.068983,256923.8281
215.069407,1241396.125
215.06983,3712879.5
215.070253,6486459
215.070676,8978755
215.0711,7823629.5
215.071523,4751084
215.071946,2050806.125
215.072369,526997.6875
215.072792,222584.2969
215.073216,928068.1875
215.073639,3145384.5
215.074062,5851847
215.074485,8204145
215.074909,7266307
215.075332,4543791.5
215.075755,1995200.125
215.076178,509187.25
215.076602,39815.39063
215.077078,0
215.077502,0
215.077925,0
215.078348,0
215.088507,0
215.08893,0
215.089353,0
215.089776,0
215.0902,78030.17969
215.090623,268647.7813
215.091046,522677.0938
215.09147,686689.3125
215.091893,652562.4375
215.092316,453513.1563
215.092739,218871.8594
215.093166,0
215.093589,0
215.094012,0
215.094436,0
216.047896,0
216.048322,0
216.048749,0
216.049175,0
216.049601,122120.2813
216.050027,271473.9688
216.050453,376655.5
216.050879,345201.4688
216.051305,191269.3281
216.051737,0
216.052163,0
216.052589,0
216.053016,0
216.064522,0
216.064948,0
216.065374,0
216.0658,0
216.066226,108652.6641
216.066652,555813.75
216.067079,1756307.125
216.067505,3264982.5
216.067931,4714285.5
216.068357,4335934.5
216.068783,2746588.5
216.069209,1276682.625
216.069636,345916.375
216.070062,1644.085205
216.070489,0
216.070915,0
216.071341,0
216.071767,0
218.099658,0
218.10009,0
218.100522,0
218.100954,0
218.101387,121749.1797
218.101819,297133.9688
218.102251,448180.4063
218.102683,462951.5313
218.103116,336203.5938
218.103548,165985.5
218.104003,0
218.104435,0
218.104867,0
218.105299,0
225.039195,0
225.039648,0
225.040101,0
225.040554,0
225.041007,128732.6797
225.04146,280563.5313
225.041913,805329.25
225.042366,1384902.125
225.042819,1699766.5
225.043272,1296994.375
225.043725,754405.1875
225.044178,235719.9063
225.044641,0
225.045094,0
225.045547,0
225.046,0
228.083493,0
228.083956,0
228.084418,0
228.08488,0
228.085342,0
228.085804,350637.4375
228.086267,1006132.438
228.086729,1713755.625
228.087191,1894868.875
228.087653,1292712.875
228.088116,694021.75
228.088578,214903.6563
228.089083,0
228.089545,0
228.090008,0
228.09047,0
228.119131,0
228.119593,0
228.120056,0
228.120518,0
228.12098,0
228.121443,538108
228.121905,2530146
228.122367,7303529.5
228.12283,12502510
228.123292,16620370
228.123754,13793903
228.124217,8414173
228.124679,3422480.5
228.125141,978003.75
228.125604,103714.6172
228.126083,0
228.126546,0
228.127008,0
228.12747,0
229.119655,0
229.120121,0
229.120586,0
229.121052,0
229.121517,121014.1641
229.121982,332275.6875
229.122448,588749.75
229.122913,699581.875
229.123378,595103
229.123844,370703.4688
229.124309,173540.9063
229.124775,0
229.12524,127498.1641
229.125705,276891.1875
229.126171,495275.8125
229.126636,678910.5625
229.127101,696250.1875
229.127567,513073
229.128032,255287.8438
229.128501,0
229.128966,0
229.129432,0
229.129897,0
230.034976,0
230.035444,0
230.035912,0
230.03638,0
230.036849,237593.3125
230.037317,857019.375
230.037785,1495848.25
230.038253,2002607.375
230.038721,1533388.125
230.039189,796326.75
230.039658,47369.67578
230.04012,0
230.040588,0
230.041056,0
230.041524,0
230.097248,0
230.097716,0
230.098184,0
230.098653,0
230.099121,158517.1094
230.099589,1526827.375
230.100058,3734912.75
230.100526,6687713
230.100994,25355976
230.101463,89622344
230.101931,184677200
230.102399,286359776
230.102868,289102944
230.103336,188745872
230.103805,93691456
230.104273,27930618
230.104741,9194673
230.10521,6664884.5
230.105678,4462005
230.106146,1426718.375
230.106615,71879.74219
230.107089,0
230.107558,0
230.108026,0
230.108495,0
230.116926,0
230.117394,0
230.117863,0
230.118331,0
230.118799,0
230.119268,0
230.119736,0
230.120205,0
230.120673,0
230.121141,0
230.12161,0
230.122078,0
230.122547,0
230.123015,0
230.123484,0
230.1619,0
230.162368,0
230.162837,0
230.163305,0
230.163774,129569.5938
230.164242,346155.4063
230.164711,643431.8125
230.165179,1304706.5
230.165648,939548.625
230.166117,431143
230.166585,0
230.167057,0
230.167526,0
230.167994,0
230.168463,0
231.097621,0
231.098092,0
231.098563,0
231.099035,0
231.099506,68568.69531
231.099978,311997.2188
231.100449,1620877
231.10092,5886823
231.101392,13149456
231.101863,21252686
231.102335,23100324
231.102806,15539283
231.103278,8521866
231.103749,3054093.5
231.10422,2470283
231.104692,5953292.5
231.105163,12352473
231.105635,19657788
231.106106,21847268
231.106578,15425229
231.107049,8456947
231.10752,3055884.75
231.107992,824271.0625
231.108463,0
231.108879,0
231.10935,0
231.109822,0
231.110293,0
232.094977,0
232.095451,0
232.095925,0
232.0964,0
232.096874,38937.95313
232.097349,428785.5625
232.097823,2166997.5
232.098298,7420029.5
232.098772,13767756
232.099247,19680592
232.099721,17451304
232.100196,10864058
232.10067,4826379
232.101145,1676985.75
232.101619,665659.375
232.102094,61962.78516
232.102627,0
232.103102,0
232.103576,0
232.104051,0
232.104525,834927.4375
232.105,1845517
232.105474,2372407
232.105949,2072576.125
232.106423,1362435.25
232.106898,618813.0625
232.107372,218043.0156
232.107847,165943.9063
232.108321,452962.5625
232.108796,642210.125
232.10927,629549.875
232.109745,463254.0313
232.110219,247697.0938
232.110697,0
232.111172,0
232.111646,0
232.112121,0
233.09558,0
233.096057,0
233.096535,0
233.097012,0
233.09749,116081.4688
233.097967,368827.4375
233.098445,921612.0625
233.098922,1276333.625
233.0994,969936.125
233.099878,524175.2188
233.100355,217513.1875
233.100833,0
233.10131,217560.5781
233.101788,394008.9375
233.102265,578534.5
233.102743,670737.1875
233.10322,594880.5625
233.103698,383894.4688
233.104175,173506.3438
233.104678,0
233.105155,0
233.105633,0
233.10611,0
240.083331,0
240.08383,0
240.084329,0
240.084828,0
240.085328,117763.1172
240.085827,286066.6875
240.086326,496529.25
240.086825,628722.9375
240.087324,578031.5
240.087823,371506.0938
240.088323,148663.8438
240.088829,0
240.089328,0
240.089827,0
240.090326,0
242.0622,0
242.062706,0
242.063211,0
242.063716,0
242.064222,111706.6016
242.064727,315385.9688
242.065232,545589.9375
242.065738,646417.625
242.066243,537176.5625
242.066748,298275.7813
242.067254,91685.66406
242.067835,0
242.06834,0
242.068846,0
242.069351,0
246.192048,0
246.192566,0
246.193084,0
246.193603,0
246.194121,142050.5781
246.194639,274403.0625
246.195158,342927.5
246.195676,290263.9375
246.196194,155442.3438
246.19675,0
246.197268,0
246.197787,0
246.198305,0
256.078261,0
256.078811,0
256.079361,0
256.079911,0
256.080461,202852.4688
256.081011,328194.4375
256.08156,433005.7813
256.08211,427194.4375
256.08266,292329.2188
256.08321,125328.6172
256.08376,0
256.08431,0
256.08486,0
256.08541,0
256.114007,0
256.114557,0
256.115107,0
256.115657,0
256.116207,107234.4531
256.116757,285503.1875
256.117307,695555.1875
256.117857,1195815
256.118407,1440835.25
256.118957,1075319
256.119507,465327.5938
256.120057,191798.7031
256.120687,0
256.121237,0
256.121787,0
256.122337,0
257.109152,0
257.109706,0
257.110259,0
257.110812,0
257.111365,114683.7734
257.111918,308895.9688
257.112472,963424.375
257.113025,1728802
257.113578,2423058.75
257.114131,2178999.25
257.114685,1383509.375
257.115238,619895.1875
257.115791,170510.9531
257.116335,0
257.116888,0
257.117441,0
257.117994,0
258.01712,0
258.017676,0
258.018232,0
258.018789,0
258.019345,188807.0625
258.019901,463438.3438
258.020457,1228465.25
258.021013,1580385
258.021569,1290750.75
258.022125,710930
258.022682,129595.8672
258.023238,0
258.023794,0
258.02435,0
258.024906,0
258.083869,0
258.084425,0
258.084981,0
258.085538,0
258.086094,0
258.08665,0
258.087207,0
258.087763,0
258.08832,0
258.088875,0
258.089431,0
258.089988,0
258.090544,0
258.0911,0
258.091657,0
258.092213,0
258.092769,0
258.093326,600818.1875
258.093882,2067720.125
258.094439,4362228.5
258.094995,6191079.5
258.095551,19539090
258.096108,68143528
258.096664,154317056
258.09722,247793440
258.097777,273672384
258.098333,188845760
258.09889,100499464
258.099446,30595660
258.100002,8361482.5
258.100559,3901119.75
258.101115,2049217.875
258.101672,0
258.102229,0
258.102786,0
258.103342,0
258.103898,0
258.104455,0
258.105011,0
258.105568,0
258.106124,0
258.10668,0
258.107237,0
258.107793,0
258.10835,0
258.108906,0
258.127826,0
258.128382,0
258.128939,0
258.129495,0
258.130052,209190.3438
258.130608,346209.75
258.131165,377824
258.131721,278708.2813
258.132278,129637.8672
258.132834,0
258.133391,0
258.133947,0
258.134504,0
258.168454,0
258.169011,0
258.169567,0
258.170124,0
258.170681,87879.20313
258.171237,363921.5
258.171794,660936.5625
258.17235,748770.4375
258.172907,329378.875
258.173464,0
258.17402,0
258.174577,0
258.175134,472722
258.17569,475641.1563
258.176247,270112.5
258.176804,32532.37109
258.177364,0
258.177921,0
258.178477,0
258.179034,0
259.09157,0
259.09213,0
259.092689,0
259.093249,0
259.093809,0
259.094368,282953.375
259.094928,1122343.375
259.095487,3480467
259.096047,10911596
259.096607,19346490
259.097166,23854336
259.097726,18361458
259.098285,10718318
259.098845,4673445.5
259.099405,6690677.5
259.099964,15599341
259.100524,24374528
259.101084,27830666
259.101643,18991466
259.102203,9513746
259.102763,1962196.5
259.103322,366964.5313
259.103882,0
259.104442,0
259.105002,0
259.105561,0
259.106121,0
260.089421,0
260.089984,0
260.090547,0
260.09111,0
260.091673,0
260.092235,675550
260.092798,2883573.75
260.093361,7589018.5
260.093924,12639429
260.094487,15664178
260.09505,11968444
260.095613,7027795.5
260.096175,2479567
260.096738,523749.6563
260.097301,0
260.097867,0
260.09843,0
260.098993,0
260.099556,703285.625
260.100119,1732074.25
260.100682,2804745.25
260.101245,2753440.75
260.101808,1933152.25
260.10237,1089261.5
260.102933,524895.4375
260.103496,156666.3438
260.104063,0
260.104626,0
260.105189,0
260.105752,0
261.090224,0
261.09079,0
261.091357,0
261.091923,0
261.092489,218906.6406
261.093055,349512.6875
261.093621,442763.5625
261.094187,459195.3438
261.094753,368384.8125
261.095319,230672.4219
261.095885,121941.1328
261.096451,491914.875
261.097018,1124801.125
261.097584,1802897.25
261.09815,1790998.75
261.098716,1110707.375
261.099282,477833.375
261.099848,74195.6875
261.100417,0
261.100983,0
261.101549,0
261.102115,0
261.662921,0
261.663488,0
261.664056,0
261.664624,0
261.665192,162280.2656
261.66576,268367.9688
261.666328,317253.8438
261.666896,271165.8438
261.667464,164065.4063
261.668054,0
261.668622,0
261.66919,0
261.669758,0
266.995549,0
266.996134,0
266.99672,0
266.997305,0
266.99789,232923.1875
266.998476,479632.5
266.999061,611182
266.999647,504369.2188
267.000232,247823.6875
267.000904,0
267.001489,0
267.002075,0
267.00266,0
273.116293,0
273.116898,0
273.117504,0
273.11811,0
273.118715,246649.625
273.119321,1032200.188
273.119927,2721876
273.120532,4568074
273.121138,5698086
273.121744,4369213.5
273.122349,2560675.25
273.122955,875004.375
273.123561,166921.9531
273.124109,0
273.124714,0
273.12532,0
273.125926,0
274.117091,0
274.1177,0
274.118309,0
274.118918,0
274.119527,258514.0938
274.120136,420481.0313
274.120745,485221.4375
274.121354,401058.7813
274.121963,216513.5781
274.122576,0
274.123185,0
274.123794,0
274.124403,0
275.143059,0
275.143672,0
275.144284,0
275.144897,0
275.145509,134720.4063
275.146121,267530.125
275.146734,357800.6563
275.147346,348747.4688
275.147959,243266.2969
275.148471,0
275.149083,0
275.149696,0
275.150308,0
276.103269,0
276.103884,0
276.1045,0
276.105116,0
276.105731,144571.8125
276.106347,521987.8438
276.106962,1377064
276.107578,2289379.25
276.108194,2861644.25
276.108809,2166781
276.109425,1234803.625
276.110041,394984.3125
276.110656,68393.72656
276.111285,0
276.1119,0
276.112516,0
276.113132,0
281.046824,0
281.047457,0
281.048089,0
281.048721,0
281.049353,258413.7656
281.049986,445044.4063
281.050618,560522.875
281.05125,544740.9375
281.051882,411971.2188
281.052515,234111.4531
281.053107,0
281.05374,0
281.054372,0
281.055004,0
303.18866,0
303.189368,0
303.190077,0
303.190785,0
303.191494,0
303.192202,0
303.19291,0
303.193619,0
303.194327,0
303.195036,0
303.195667,0
303.196375,0
303.197084,0
303.197792,0
318.265404,0
318.266166,0
318.266928,0
318.26769,0
318.268452,176519.1094
318.269213,285064.625
318.269975,325918.5625
318.270737,278877
318.271499,176655.25
318.272203,0
318.272965,0
318.273727,0
318.274489,0
346.163071,0
346.163935,0
346.164799,0
346.165663,0
346.166528,123358.8438
346.167392,286514.5625
346.168256,381024.6563
346.16912,340939.0938
346.169984,207920.0938
346.17088,0
346.171744,0
346.172609,0
346.173473,0
359.031962,0
359.032875,0
359.033788,0
359.034701,0
359.035613,160602.9844
359.036526,343905.9063
359.037439,497998.6875
359.038352,527395.3125
359.039265,417658.7813
359.040178,243852.6094
359.040967,0
359.04188,0
359.042793,0
359.043706,0
368.034128,0
368.035075,0
368.036022,0
368.03697,0
368.037917,158554.5781
368.038865,277044.5
368.039812,327796.6563
368.040759,274537.2813
368.041707,157189.4844
368.042689,0
368.043636,0
368.044584,0
368.045531,0
384.823263,0
384.824276,0
384.825289,0
384.826302,0
384.827315,213788.3125
384.828328,357975.375
384.829341,407532.7188
384.830354,323421.0313
384.831367,168921.6563
384.832392,0
384.833405,0
384.834418,0
384.835431,0
390.729141,0
390.730178,0
390.731214,0
390.73225,0
390.733287,191505.4531
390.734323,285367.4688
390.73536,315628.875
390.736396,268739
390.737432,174272.0938
390.738471,0
390.739508,0
390.740544,0
390.74158,0
391.830023,0
391.831064,0
391.832105,0
391.833145,0
391.834186,239462.2344
391.835227,370714
391.836268,401787.0313
391.837308,309201.0938
391.838349,157736.8281
391.839249,0
391.84029,0
391.841331,0
391.842371,0
400.12833,0
400.129404,0
400.130478,0
400.131552,0
400.132626,261276.4531
400.1337,376482.4063
400.134774,382109.25
400.135848,270180.6875
400.136922,121137.2656
400.13803,0
400.139105,0
400.140179,0
400.141253,0
420.782242,0
420.7834,0
420.784558,0
420.785716,0
420.786875,169643.8594
420.788033,314363.6563
420.789191,368312.9375
420.790349,285668.875
420.791508,132589.75
420.791872,0
420.793031,0
420.794189,0
420.795347,0
506.252582,0
506.25411,0
506.255638,0
506.257167,0
506.258695,137949.5625
506.260224,290252.9375
506.261752,370881.3438
506.263281,317351.2813
506.26481,170449.5625
506.266329,0
506.267858,0
506.269386,0
506.270915,0
559.500743,0
559.502518,0
559.504294,0
559.50607,0
559.507846,148802.9531
559.509622,269822.6875
559.511398,320279.875
559.513174,266196.25
559.51495,146006.7188
559.516723,0
559.518499,0
559.520275,0
559.522051,0
572.176866,0
572.178703,0
572.18054,0
572.182376,0
572.184213,163642.1563
572.186049,295829.3125
572.187886,339381.6563
572.189723,270510.7813
572.191559,146808.1875
572.193394,0
572.19523,0
572.197067,0
572.198904,0
583.448131,0
583.450022,0
583.451913,0
583.453804,0
583.455695,181012
583.457586,279873.9063
583.459477,312653.9063
583.461369,262445.5
583.46326,158059.7969
583.465151,0
583.467042,0
583.468933,0
583.470824,0
606.045137,0
606.047139,0
606.049141,0
606.051143,0
